SpectraSuite Data File
++++++++++++++++++++++++++++++++++++
Date: Sun Jan 01 00:30:20 GMT-03:00 2006
User: Lavfis
Dark Spectrum Present: Yes
Reference Spectrum Present: Yes
Number of Sampled Component Spectra: 1
Spectrometers: HR4C5405
Integration Time (usec): 5000 (HR4C5405)
Spectra Averaged: 3 (HR4C5405)
Boxcar Smoothing: 3 (HR4C5405)
Correct for Electrical Dark: Yes (HR4C5405)
Strobe/Lamp Enabled: No (HR4C5405)
Correct for Detector Non-linearity: No (HR4C5405)
Correct for Stray Light: No (HR4C5405)
Number of Pixels in Processed Spectrum: 3648
>>>>>Begin Processed Spectral Data<<<<<
194,53	-0,000
194,80	-0,000
195,07	-0,000
195,34	-0,023
195,61	0,058
195,88	0,002
196,15	0,195
196,42	0,171
196,69	-0,214
196,96	-0,000
197,23	-0,826
197,50	0,426
197,77	-0,000
198,04	-0,000
198,31	-0,675
198,58	-0,377
198,85	-0,117
199,12	-0,270
199,39	0,196
199,66	-0,000
199,93	-0,154
200,20	-0,538
200,47	0,539
200,74	0,155
201,01	0,119
201,28	0,824
201,55	0,336
201,82	0,076
202,09	-0,000
202,36	0,405
202,63	-0,000
202,90	0,479
203,17	-0,924
203,44	0,281
203,71	0,290
203,98	0,028
204,25	0,165
204,52	0,036
204,79	0,025
205,06	-0,031
205,33	0,024
205,60	0,106
205,86	0,117
206,13	-0,092
206,40	0,077
206,67	0,017
206,94	0,013
207,21	-0,013
207,48	0,075
207,75	0,514
208,02	-0,392
208,29	-0,000
208,56	0,327
208,83	-0,404
209,10	-0,000
209,37	1,115
209,64	-0,000
209,91	0,216
210,18	0,466
210,45	-0,018
210,72	-0,000
210,99	-0,000
211,26	-0,080
211,53	0,008
211,80	-0,234
212,07	0,011
212,33	-0,857
212,60	0,020
212,87	0,071
213,14	-0,000
213,41	0,168
213,68	0,523
213,95	0,511
214,22	0,471
214,49	-0,000
214,76	0,348
215,03	0,190
215,30	-0,000
215,57	-0,193
215,84	0,082
216,11	-0,000
216,38	0,365
216,65	0,638
216,91	1,062
217,18	0,240
217,45	0,171
217,72	0,588
217,99	-0,000
218,26	-0,000
218,53	-0,013
218,80	-0,026
219,07	-0,066
219,34	0,039
219,61	0,075
219,88	0,158
220,15	0,194
220,42	0,295
220,68	0,540
220,95	1,183
221,22	0,790
221,49	-0,000
221,76	0,922
222,03	-0,000
222,30	0,908
222,57	0,329
222,84	0,019
223,11	-0,032
223,38	-0,221
223,65	-0,252
223,92	-0,176
224,18	-0,171
224,45	-0,231
224,72	-0,226
224,99	0,018
225,26	-0,157
225,53	-0,310
225,80	-0,306
226,07	0,258
226,34	0,414
226,61	-0,000
226,88	-0,000
227,14	0,240
227,41	0,110
227,68	0,073
227,95	0,052
228,22	0,026
228,49	0,129
228,76	0,115
229,03	0,228
229,30	-0,000
229,57	0,243
229,83	-0,000
230,10	-0,000
230,37	-0,000
230,64	-0,000
230,91	-0,969
231,18	-0,361
231,45	-0,000
231,72	0,306
231,99	-0,000
232,25	0,260
232,52	0,979
232,79	-0,379
233,06	-0,000
233,33	0,193
233,60	0,201
233,87	0,833
234,14	-0,000
234,41	0,232
234,67	0,422
234,94	-0,000
235,21	0,092
235,48	-0,214
235,75	0,381
236,02	-0,003
236,29	0,001
236,56	-0,000
236,82	0,010
237,09	-0,646
237,36	-0,868
237,63	-0,272
237,90	-0,006
238,17	0,093
238,44	0,097
238,71	-0,316
238,97	-0,000
239,24	0,027
239,51	0,063
239,78	-0,146
240,05	0,079
240,32	-0,000
240,59	0,106
240,86	-0,431
241,12	0,002
241,39	0,009
241,66	-0,127
241,93	0,024
242,20	0,038
242,47	0,137
242,74	0,154
243,00	0,279
243,27	0,245
243,54	0,157
243,81	0,195
244,08	0,506
244,35	-0,000
244,62	0,118
244,88	0,318
245,15	-0,530
245,42	-0,000
245,69	-1,438
245,96	0,003
246,23	0,094
246,50	0,186
246,76	0,691
247,03	0,874
247,30	-0,000
247,57	-0,000
247,84	-0,231
248,11	0,231
248,37	0,352
248,64	0,843
248,91	-0,431
249,18	-0,105
249,45	-0,000
249,72	-0,248
249,99	0,003
250,25	0,277
250,52	0,385
250,79	0,444
251,06	0,708
251,33	0,187
251,60	1,316
251,86	0,320
252,13	-0,000
252,40	0,084
252,67	0,346
252,94	-0,081
253,21	-0,078
253,47	-0,081
253,74	-0,220
254,01	-0,115
254,28	0,051
254,55	-0,018
254,81	0,084
255,08	0,129
255,35	0,160
255,62	0,078
255,89	-0,000
256,16	-0,000
256,42	0,252
256,69	0,523
256,96	-0,000
257,23	0,558
257,50	0,533
257,76	0,215
258,03	-0,000
258,30	0,494
258,57	0,617
258,84	-0,000
259,11	1,906
259,37	0,215
259,64	-0,000
259,91	0,615
260,18	0,252
260,45	0,626
260,71	-0,000
260,98	-0,000
261,25	-0,000
261,52	-0,000
261,79	-0,000
262,05	-0,000
262,32	-0,000
262,59	0,606
262,86	0,330
263,13	-0,000
263,39	-0,000
263,66	0,382
263,93	-0,523
264,20	-0,000
264,47	-0,000
264,73	-0,000
265,00	-0,626
265,27	-0,000
265,54	-0,000
265,81	0,255
266,07	0,352
266,34	1,200
266,61	0,750
266,88	0,449
267,15	0,082
267,41	0,162
267,68	0,310
267,95	0,294
268,22	0,196
268,48	0,551
268,75	0,358
269,02	0,266
269,29	-0,000
269,56	-0,450
269,82	-0,000
270,09	0,203
270,36	0,098
270,63	-0,000
270,89	-0,228
271,16	-0,000
271,43	0,244
271,70	-0,000
271,97	0,487
272,23	0,530
272,50	0,793
272,77	-0,951
273,04	0,346
273,30	-0,000
273,57	0,480
273,84	2,307
274,11	0,475
274,37	0,838
274,64	0,771
274,91	0,295
275,18	0,322
275,45	-0,000
275,71	-0,000
275,98	-0,572
276,25	-0,000
276,52	0,324
276,78	0,409
277,05	0,438
277,32	0,240
277,59	0,172
277,85	0,256
278,12	0,459
278,39	0,337
278,66	0,326
278,92	0,315
279,19	1,145
279,46	-0,000
279,73	-0,000
279,99	1,934
280,26	-0,000
280,53	2,024
280,80	1,001
281,06	0,316
281,33	0,329
281,60	0,426
281,87	1,055
282,13	-0,000
282,40	0,439
282,67	0,363
282,94	0,552
283,20	-0,000
283,47	1,839
283,74	-0,000
284,01	1,328
284,27	0,428
284,54	0,326
284,81	1,044
285,07	0,414
285,34	0,344
285,61	0,334
285,88	0,284
286,14	0,320
286,41	0,387
286,68	0,258
286,95	0,315
287,21	0,465
287,48	0,651
287,75	0,413
288,02	0,545
288,28	1,124
288,55	-0,000
288,82	0,365
289,08	0,420
289,35	-0,000
289,62	-0,000
289,89	-0,000
290,15	0,591
290,42	0,581
290,69	-0,000
290,95	1,033
291,22	0,832
291,49	-0,000
291,76	0,740
292,02	0,934
292,29	0,822
292,56	0,805
292,82	0,851
293,09	-0,000
293,36	1,742
293,63	1,237
293,89	0,668
294,16	0,751
294,43	1,357
294,69	1,261
294,96	1,120
295,23	1,325
295,50	0,948
295,76	0,770
296,03	1,581
296,30	1,695
296,56	1,188
296,83	1,813
297,10	1,466
297,36	1,393
297,63	0,898
297,90	0,934
298,16	1,575
298,43	1,216
298,70	1,103
298,97	1,207
299,23	-0,000
299,50	1,359
299,77	1,237
300,03	1,232
300,30	2,317
300,57	1,321
300,83	1,475
301,10	2,592
301,37	1,621
301,63	1,639
301,90	1,668
302,17	1,388
302,44	-0,000
302,70	1,586
302,97	1,293
303,24	1,834
303,50	3,196
303,77	1,613
304,04	1,688
304,30	1,465
304,57	1,823
304,84	1,466
305,10	-0,000
305,37	1,853
305,64	2,256
305,90	2,194
306,17	1,694
306,44	1,672
306,70	-0,000
306,97	1,771
307,24	1,919
307,50	2,037
307,77	1,826
308,04	3,555
308,30	-0,000
308,57	1,897
308,84	2,168
309,10	-0,000
309,37	2,303
309,64	1,900
309,90	1,750
310,17	1,995
310,44	2,254
310,70	2,743
310,97	1,802
311,24	1,794
311,50	2,158
311,77	1,997
312,04	2,030
312,30	2,853
312,57	2,518
312,84	1,978
313,10	-0,000
313,37	3,024
313,63	2,159
313,90	1,867
314,17	2,193
314,43	-0,000
314,70	3,386
314,97	1,881
315,23	1,996
315,50	1,995
315,77	2,145
316,03	-0,000
316,30	1,941
316,57	2,319
316,83	2,197
317,10	-0,000
317,36	2,499
317,63	2,055
317,90	2,079
318,16	2,210
318,43	2,640
318,70	-0,000
318,96	2,161
319,23	2,003
319,50	2,477
319,76	2,324
320,03	2,383
320,29	2,573
320,56	2,140
320,83	2,225
321,09	1,935
321,36	2,310
321,63	2,249
321,89	2,276
322,16	2,171
322,42	2,195
322,69	2,527
322,96	2,357
323,22	2,176
323,49	-0,000
323,76	2,162
324,02	2,261
324,29	2,288
324,55	2,256
324,82	2,077
325,09	2,368
325,35	2,306
325,62	2,563
325,88	2,029
326,15	2,093
326,42	2,325
326,68	2,205
326,95	2,637
327,21	2,425
327,48	2,009
327,75	2,312
328,01	2,205
328,28	-0,000
328,55	2,165
328,81	2,001
329,08	2,196
329,34	2,662
329,61	2,472
329,88	2,856
330,14	2,169
330,41	2,260
330,67	2,046
330,94	2,172
331,21	2,167
331,47	2,155
331,74	2,120
332,00	2,287
332,27	2,096
332,53	2,080
332,80	2,150
333,07	2,092
333,33	2,092
333,60	2,158
333,86	2,182
334,13	2,530
334,40	2,397
334,66	2,161
334,93	2,448
335,19	2,610
335,46	2,939
335,73	2,199
335,99	2,200
336,26	2,250
336,52	2,382
336,79	2,128
337,05	2,088
337,32	2,259
337,59	1,945
337,85	2,068
338,12	2,122
338,38	2,396
338,65	2,268
338,91	2,191
339,18	2,164
339,45	2,212
339,71	2,357
339,98	2,062
340,24	2,223
340,51	1,989
340,77	2,115
341,04	2,155
341,31	1,991
341,57	2,154
341,84	2,249
342,10	2,375
342,37	2,034
342,63	2,056
342,90	2,062
343,17	2,325
343,43	2,031
343,70	2,022
343,96	2,119
344,23	2,079
344,49	2,082
344,76	2,230
345,02	2,183
345,29	2,510
345,56	2,474
345,82	2,095
346,09	2,077
346,35	2,003
346,62	-0,000
346,88	2,120
347,15	2,279
347,41	2,277
347,68	2,053
347,94	1,994
348,21	2,088
348,48	2,223
348,74	1,941
349,01	1,927
349,27	1,961
349,54	1,944
349,80	1,949
350,07	1,952
350,33	2,001
350,60	2,019
350,86	1,958
351,13	2,149
351,39	2,159
351,66	2,033
351,93	2,031
352,19	1,914
352,46	1,966
352,72	1,910
352,99	1,851
353,25	1,882
353,52	1,792
353,78	1,896
354,05	1,763
354,31	1,771
354,58	1,813
354,84	1,712
355,11	1,888
355,37	1,727
355,64	1,681
355,90	1,743
356,17	1,668
356,43	1,679
356,70	1,618
356,97	1,631
357,23	1,646
357,50	1,581
357,76	1,686
358,03	1,714
358,29	1,678
358,56	1,636
358,82	1,645
359,09	1,673
359,35	1,581
359,62	1,579
359,88	1,541
360,15	1,552
360,41	1,492
360,68	1,521
360,94	1,473
361,21	1,519
361,47	1,504
361,74	1,529
362,00	1,517
362,27	1,494
362,53	1,547
362,80	1,515
363,06	1,492
363,33	1,417
363,59	1,384
363,86	1,435
364,12	1,422
364,39	1,420
364,65	1,437
364,92	1,366
365,18	1,415
365,45	1,374
365,71	1,363
365,98	1,416
366,24	1,369
366,51	1,366
366,77	1,371
367,04	1,357
367,30	1,362
367,57	1,325
367,83	1,348
368,10	1,343
368,36	1,329
368,63	1,303
368,89	1,299
369,15	1,303
369,42	1,299
369,68	1,302
369,95	1,311
370,21	1,291
370,48	1,312
370,74	1,295
371,01	1,263
371,27	1,258
371,54	1,243
371,80	1,277
372,07	1,249
372,33	1,234
372,60	1,217
372,86	1,212
373,13	1,221
373,39	1,209
373,66	1,231
373,92	1,188
374,18	1,199
374,45	1,177
374,71	1,187
374,98	1,188
375,24	1,178
375,51	1,158
375,77	1,166
376,04	1,157
376,30	1,147
376,57	1,150
376,83	1,175
377,10	1,171
377,36	1,137
377,62	1,152
377,89	1,137
378,15	1,110
378,42	1,130
378,68	1,100
378,95	1,108
379,21	1,109
379,48	1,098
379,74	1,084
380,00	1,098
380,27	1,075
380,53	1,091
380,80	1,093
381,06	1,096
381,33	1,087
381,59	1,083
381,86	1,075
382,12	1,079
382,38	1,067
382,65	1,072
382,91	1,064
383,18	1,059
383,44	1,052
383,71	1,048
383,97	1,049
384,24	1,063
384,50	1,042
384,76	1,048
385,03	1,042
385,29	1,039
385,56	1,033
385,82	1,029
386,09	1,034
386,35	1,033
386,61	1,018
386,88	1,036
387,14	1,034
387,41	1,030
387,67	1,033
387,94	1,023
388,20	1,032
388,46	1,028
388,73	1,020
388,99	1,017
389,26	1,030
389,52	1,024
389,78	1,006
390,05	1,004
390,31	1,025
390,58	1,011
390,84	1,011
391,11	0,999
391,37	1,019
391,63	1,011
391,90	1,007
392,16	1,031
392,43	1,015
392,69	1,013
392,95	1,015
393,22	1,016
393,48	1,025
393,75	1,013
394,01	1,012
394,27	1,014
394,54	1,018
394,80	1,013
395,07	1,010
395,33	1,011
395,59	1,014
395,86	1,025
396,12	1,036
396,39	1,031
396,65	1,034
396,91	1,021
397,18	1,026
397,44	1,029
397,71	1,026
397,97	1,030
398,23	1,024
398,50	1,032
398,76	1,038
399,03	1,036
399,29	1,043
399,55	1,031
399,82	1,041
400,08	1,048
400,34	1,033
400,61	1,040
400,87	1,033
401,14	1,048
401,40	1,059
401,66	1,053
401,93	1,040
402,19	1,055
402,46	1,068
402,72	1,058
402,98	1,060
403,25	1,059
403,51	1,075
403,77	1,079
404,04	1,067
404,30	1,070
404,57	1,094
404,83	1,091
405,09	1,101
405,36	1,099
405,62	1,099
405,88	1,111
406,15	1,098
406,41	1,094
406,67	1,102
406,94	1,105
407,20	1,115
407,47	1,111
407,73	1,105
407,99	1,136
408,26	1,129
408,52	1,128
408,78	1,138
409,05	1,141
409,31	1,139
409,57	1,141
409,84	1,159
410,10	1,157
410,37	1,165
410,63	1,153
410,89	1,162
411,16	1,162
411,42	1,170
411,68	1,155
411,95	1,139
412,21	1,152
412,47	1,159
412,74	1,155
413,00	1,147
413,26	1,155
413,53	1,171
413,79	1,164
414,05	1,184
414,32	1,205
414,58	1,156
414,84	1,164
415,11	1,166
415,37	1,176
415,63	1,169
415,90	1,158
416,16	1,146
416,42	1,155
416,69	1,140
416,95	1,139
417,21	1,151
417,48	1,128
417,74	1,142
418,00	1,151
418,27	1,144
418,53	1,151
418,79	1,146
419,06	1,130
419,32	1,130
419,58	1,122
419,85	1,125
420,11	1,128
420,37	1,136
420,64	1,139
420,90	1,145
421,16	1,136
421,43	1,134
421,69	1,118
421,95	1,120
422,22	1,126
422,48	1,120
422,74	1,122
423,01	1,115
423,27	1,112
423,53	1,119
423,79	1,115
424,06	1,112
424,32	1,098
424,58	1,111
424,85	1,104
425,11	1,103
425,37	1,117
425,64	1,098
425,90	1,111
426,16	1,115
426,43	1,122
426,69	1,124
426,95	1,130
427,21	1,136
427,48	1,129
427,74	1,128
428,00	1,141
428,27	1,148
428,53	1,133
428,79	1,134
429,06	1,138
429,32	1,146
429,58	1,162
429,84	1,164
430,11	1,153
430,37	1,150
430,63	1,144
430,90	1,147
431,16	1,136
431,42	1,130
431,68	1,132
431,95	1,134
432,21	1,133
432,47	1,124
432,74	1,130
433,00	1,148
433,26	1,140
433,52	1,136
433,79	1,140
434,05	1,128
434,31	1,135
434,58	1,131
434,84	1,140
435,10	1,135
435,36	1,120
435,63	1,119
435,89	1,114
436,15	1,096
436,41	1,113
436,68	1,093
436,94	1,089
437,20	1,093
437,47	1,086
437,73	1,087
437,99	1,086
438,25	1,080
438,52	1,076
438,78	1,043
439,04	1,073
439,30	1,039
439,57	1,046
439,83	1,041
440,09	1,040
440,35	1,003
440,62	1,001
440,88	1,009
441,14	0,997
441,41	0,986
441,67	0,987
441,93	0,973
442,19	0,961
442,46	0,953
442,72	0,940
442,98	0,936
443,24	0,951
443,51	0,944
443,77	0,926
444,03	0,911
444,29	0,918
444,56	0,916
444,82	0,906
445,08	0,905
445,34	0,889
445,61	0,890
445,87	0,875
446,13	0,873
446,39	0,865
446,65	0,861
446,92	0,863
447,18	0,847
447,44	0,848
447,70	0,842
447,97	0,840
448,23	0,834
448,49	0,835
448,75	0,828
449,02	0,820
449,28	0,810
449,54	0,816
449,80	0,806
450,07	0,810
450,33	0,799
450,59	0,802
450,85	0,798
451,11	0,801
451,38	0,789
451,64	0,793
451,90	0,791
452,16	0,783
452,43	0,781
452,69	0,783
452,95	0,776
453,21	0,770
453,47	0,774
453,74	0,770
454,00	0,771
454,26	0,773
454,52	0,766
454,79	0,765
455,05	0,761
455,31	0,756
455,57	0,754
455,83	0,754
456,10	0,752
456,36	0,750
456,62	0,750
456,88	0,747
457,14	0,742
457,41	0,745
457,67	0,740
457,93	0,747
458,19	0,744
458,45	0,749
458,72	0,745
458,98	0,744
459,24	0,747
459,50	0,747
459,76	0,744
460,03	0,748
460,29	0,742
460,55	0,740
460,81	0,742
461,07	0,743
461,34	0,746
461,60	0,744
461,86	0,747
462,12	0,746
462,38	0,748
462,65	0,750
462,91	0,748
463,17	0,751
463,43	0,753
463,69	0,749
463,96	0,754
464,22	0,750
464,48	0,747
464,74	0,751
465,00	0,753
465,26	0,755
465,53	0,755
465,79	0,750
466,05	0,752
466,31	0,758
466,57	0,756
466,84	0,752
467,10	0,754
467,36	0,750
467,62	0,749
467,88	0,748
468,14	0,747
468,41	0,746
468,67	0,745
468,93	0,741
469,19	0,740
469,45	0,741
469,71	0,740
469,98	0,738
470,24	0,734
470,50	0,730
470,76	0,730
471,02	0,728
471,28	0,723
471,55	0,720
471,81	0,714
472,07	0,715
472,33	0,709
472,59	0,705
472,85	0,700
473,12	0,698
473,38	0,692
473,64	0,689
473,90	0,683
474,16	0,678
474,42	0,675
474,68	0,669
474,95	0,664
475,21	0,659
475,47	0,652
475,73	0,646
475,99	0,641
476,25	0,634
476,52	0,627
476,78	0,622
477,04	0,616
477,30	0,610
477,56	0,604
477,82	0,599
478,08	0,593
478,35	0,585
478,61	0,579
478,87	0,572
479,13	0,565
479,39	0,557
479,65	0,552
479,91	0,544
480,17	0,538
480,44	0,530
480,70	0,523
480,96	0,518
481,22	0,511
481,48	0,503
481,74	0,495
482,00	0,489
482,27	0,482
482,53	0,475
482,79	0,468
483,05	0,460
483,31	0,454
483,57	0,448
483,83	0,441
484,09	0,434
484,36	0,427
484,62	0,421
484,88	0,415
485,14	0,410
485,40	0,404
485,66	0,397
485,92	0,391
486,18	0,384
486,44	0,378
486,71	0,372
486,97	0,366
487,23	0,359
487,49	0,353
487,75	0,348
488,01	0,342
488,27	0,337
488,53	0,332
488,79	0,326
489,06	0,321
489,32	0,317
489,58	0,312
489,84	0,307
490,10	0,303
490,36	0,298
490,62	0,293
490,88	0,289
491,14	0,285
491,40	0,281
491,67	0,278
491,93	0,274
492,19	0,271
492,45	0,268
492,71	0,264
492,97	0,260
493,23	0,256
493,49	0,253
493,75	0,249
494,01	0,246
494,28	0,242
494,54	0,239
494,80	0,236
495,06	0,233
495,32	0,229
495,58	0,226
495,84	0,224
496,10	0,221
496,36	0,218
496,62	0,215
496,88	0,212
497,14	0,209
497,41	0,207
497,67	0,206
497,93	0,204
498,19	0,201
498,45	0,199
498,71	0,197
498,97	0,195
499,23	0,192
499,49	0,190
499,75	0,189
500,01	0,188
500,27	0,186
500,53	0,185
500,80	0,184
501,06	0,182
501,32	0,180
501,58	0,178
501,84	0,176
502,10	0,174
502,36	0,173
502,62	0,171
502,88	0,170
503,14	0,168
503,40	0,167
503,66	0,165
503,92	0,164
504,18	0,162
504,44	0,160
504,70	0,160
504,97	0,158
505,23	0,157
505,49	0,156
505,75	0,155
506,01	0,154
506,27	0,153
506,53	0,152
506,79	0,152
507,05	0,152
507,31	0,151
507,57	0,150
507,83	0,149
508,09	0,148
508,35	0,147
508,61	0,146
508,87	0,145
509,13	0,144
509,39	0,143
509,65	0,142
509,91	0,141
510,17	0,139
510,43	0,138
510,70	0,138
510,96	0,137
511,22	0,136
511,48	0,136
511,74	0,135
512,00	0,133
512,26	0,132
512,52	0,132
512,78	0,131
513,04	0,130
513,30	0,129
513,56	0,128
513,82	0,128
514,08	0,127
514,34	0,127
514,60	0,125
514,86	0,125
515,12	0,124
515,38	0,124
515,64	0,123
515,90	0,123
516,16	0,122
516,42	0,122
516,68	0,121
516,94	0,121
517,20	0,120
517,46	0,120
517,72	0,120
517,98	0,120
518,24	0,119
518,50	0,119
518,76	0,119
519,02	0,118
519,28	0,118
519,54	0,119
519,80	0,118
520,06	0,118
520,32	0,118
520,58	0,118
520,84	0,119
521,10	0,118
521,36	0,117
521,62	0,118
521,88	0,117
522,14	0,117
522,40	0,116
522,66	0,117
522,92	0,117
523,18	0,116
523,44	0,116
523,70	0,117
523,96	0,117
524,22	0,118
524,48	0,118
524,74	0,118
525,00	0,118
525,26	0,118
525,52	0,119
525,78	0,119
526,04	0,119
526,30	0,119
526,56	0,119
526,82	0,120
527,08	0,119
527,34	0,120
527,60	0,120
527,86	0,120
528,12	0,121
528,38	0,121
528,64	0,122
528,90	0,122
529,16	0,122
529,42	0,122
529,68	0,122
529,94	0,123
530,20	0,123
530,46	0,123
530,72	0,123
530,98	0,124
531,24	0,124
531,50	0,125
531,76	0,125
532,02	0,125
532,28	0,125
532,54	0,126
532,80	0,126
533,06	0,127
533,32	0,127
533,58	0,127
533,84	0,128
534,10	0,129
534,35	0,129
534,61	0,129
534,87	0,129
535,13	0,129
535,39	0,130
535,65	0,129
535,91	0,128
536,17	0,128
536,43	0,128
536,69	0,129
536,95	0,129
537,21	0,129
537,47	0,129
537,73	0,129
537,99	0,129
538,25	0,128
538,51	0,127
538,77	0,126
539,03	0,125
539,29	0,125
539,55	0,124
539,80	0,124
540,06	0,124
540,32	0,124
540,58	0,124
540,84	0,124
541,10	0,123
541,36	0,123
541,62	0,123
541,88	0,122
542,14	0,122
542,40	0,121
542,66	0,120
542,92	0,119
543,18	0,118
543,44	0,119
543,70	0,118
543,95	0,118
544,21	0,118
544,47	0,118
544,73	0,118
544,99	0,118
545,25	0,117
545,51	0,117
545,77	0,117
546,03	0,117
546,29	0,117
546,55	0,117
546,81	0,117
547,07	0,117
547,32	0,117
547,58	0,116
547,84	0,116
548,10	0,115
548,36	0,115
548,62	0,114
548,88	0,113
549,14	0,114
549,40	0,115
549,66	0,114
549,92	0,115
550,18	0,115
550,43	0,116
550,69	0,115
550,95	0,116
551,21	0,115
551,47	0,115
551,73	0,115
551,99	0,114
552,25	0,114
552,51	0,114
552,77	0,113
553,03	0,113
553,28	0,113
553,54	0,114
553,80	0,114
554,06	0,115
554,32	0,115
554,58	0,115
554,84	0,115
555,10	0,115
555,36	0,115
555,61	0,115
555,87	0,115
556,13	0,115
556,39	0,116
556,65	0,115
556,91	0,116
557,17	0,116
557,43	0,117
557,69	0,117
557,94	0,118
558,20	0,118
558,46	0,118
558,72	0,118
558,98	0,118
559,24	0,119
559,50	0,120
559,76	0,120
560,02	0,120
560,27	0,120
560,53	0,121
560,79	0,121
561,05	0,121
561,31	0,121
561,57	0,121
561,83	0,122
562,09	0,123
562,34	0,123
562,60	0,123
562,86	0,124
563,12	0,124
563,38	0,124
563,64	0,124
563,90	0,124
564,15	0,125
564,41	0,125
564,67	0,125
564,93	0,125
565,19	0,126
565,45	0,126
565,71	0,126
565,97	0,127
566,22	0,127
566,48	0,127
566,74	0,128
567,00	0,128
567,26	0,128
567,52	0,128
567,78	0,128
568,03	0,129
568,29	0,130
568,55	0,130
568,81	0,130
569,07	0,131
569,33	0,132
569,58	0,132
569,84	0,132
570,10	0,132
570,36	0,133
570,62	0,133
570,88	0,133
571,14	0,134
571,39	0,134
571,65	0,134
571,91	0,134
572,17	0,134
572,43	0,133
572,69	0,133
572,94	0,134
573,20	0,134
573,46	0,135
573,72	0,135
573,98	0,136
574,24	0,136
574,49	0,137
574,75	0,137
575,01	0,137
575,27	0,137
575,53	0,137
575,79	0,137
576,04	0,138
576,30	0,138
576,56	0,138
576,82	0,138
577,08	0,138
577,33	0,138
577,59	0,138
577,85	0,137
578,11	0,137
578,37	0,137
578,63	0,137
578,88	0,138
579,14	0,138
579,40	0,139
579,66	0,140
579,92	0,141
580,17	0,142
580,43	0,143
580,69	0,144
580,95	0,144
581,21	0,144
581,47	0,144
581,72	0,144
581,98	0,144
582,24	0,144
582,50	0,145
582,76	0,145
583,01	0,145
583,27	0,145
583,53	0,145
583,79	0,145
584,05	0,145
584,30	0,145
584,56	0,146
584,82	0,146
585,08	0,147
585,34	0,147
585,59	0,148
585,85	0,148
586,11	0,148
586,37	0,148
586,63	0,148
586,88	0,148
587,14	0,147
587,40	0,148
587,66	0,148
587,91	0,149
588,17	0,149
588,43	0,150
588,69	0,150
588,95	0,151
589,20	0,151
589,46	0,151
589,72	0,151
589,98	0,151
590,24	0,152
590,49	0,152
590,75	0,151
591,01	0,152
591,27	0,153
591,52	0,153
591,78	0,154
592,04	0,154
592,30	0,155
592,55	0,155
592,81	0,155
593,07	0,156
593,33	0,157
593,59	0,158
593,84	0,159
594,10	0,159
594,36	0,160
594,62	0,160
594,87	0,161
595,13	0,162
595,39	0,163
595,65	0,163
595,90	0,164
596,16	0,165
596,42	0,166
596,68	0,167
596,93	0,167
597,19	0,168
597,45	0,168
597,71	0,169
597,97	0,170
598,22	0,170
598,48	0,171
598,74	0,172
599,00	0,174
599,25	0,175
599,51	0,176
599,77	0,177
600,03	0,178
600,28	0,180
600,54	0,181
600,80	0,182
601,05	0,184
601,31	0,184
601,57	0,185
601,83	0,185
602,08	0,185
602,34	0,186
602,60	0,187
602,86	0,187
603,11	0,188
603,37	0,189
603,63	0,190
603,89	0,191
604,14	0,192
604,40	0,194
604,66	0,194
604,92	0,195
605,17	0,195
605,43	0,196
605,69	0,197
605,94	0,197
606,20	0,198
606,46	0,199
606,72	0,200
606,97	0,201
607,23	0,202
607,49	0,202
607,75	0,203
608,00	0,203
608,26	0,204
608,52	0,204
608,77	0,205
609,03	0,205
609,29	0,205
609,55	0,206
609,80	0,206
610,06	0,206
610,32	0,207
610,57	0,208
610,83	0,208
611,09	0,207
611,35	0,207
611,60	0,208
611,86	0,207
612,12	0,207
612,37	0,207
612,63	0,207
612,89	0,207
613,15	0,207
613,40	0,207
613,66	0,207
613,92	0,208
614,17	0,208
614,43	0,208
614,69	0,208
614,94	0,209
615,20	0,209
615,46	0,208
615,72	0,207
615,97	0,207
616,23	0,207
616,49	0,206
616,74	0,205
617,00	0,204
617,26	0,204
617,51	0,204
617,77	0,203
618,03	0,203
618,28	0,203
618,54	0,203
618,80	0,203
619,05	0,202
619,31	0,203
619,57	0,202
619,83	0,201
620,08	0,200
620,34	0,200
620,60	0,199
620,85	0,199
621,11	0,199
621,37	0,199
621,62	0,199
621,88	0,198
622,14	0,198
622,39	0,197
622,65	0,196
622,91	0,196
623,16	0,195
623,42	0,194
623,68	0,195
623,93	0,195
624,19	0,194
624,45	0,194
624,70	0,194
624,96	0,194
625,22	0,194
625,47	0,193
625,73	0,192
625,99	0,193
626,24	0,193
626,50	0,192
626,76	0,192
627,01	0,191
627,27	0,191
627,53	0,191
627,78	0,191
628,04	0,191
628,30	0,191
628,55	0,192
628,81	0,192
629,07	0,192
629,32	0,192
629,58	0,192
629,83	0,192
630,09	0,193
630,35	0,193
630,60	0,192
630,86	0,193
631,12	0,193
631,37	0,193
631,63	0,193
631,89	0,193
632,14	0,194
632,40	0,196
632,66	0,196
632,91	0,197
633,17	0,198
633,42	0,199
633,68	0,200
633,94	0,201
634,19	0,202
634,45	0,204
634,71	0,205
634,96	0,206
635,22	0,208
635,48	0,209
635,73	0,211
635,99	0,212
636,24	0,213
636,50	0,214
636,76	0,216
637,01	0,218
637,27	0,220
637,53	0,222
637,78	0,223
638,04	0,225
638,29	0,227
638,55	0,230
638,81	0,232
639,06	0,234
639,32	0,237
639,57	0,240
639,83	0,242
640,09	0,245
640,34	0,247
640,60	0,249
640,86	0,252
641,11	0,254
641,37	0,257
641,62	0,260
641,88	0,262
642,14	0,265
642,39	0,268
642,65	0,271
642,90	0,273
643,16	0,277
643,42	0,280
643,67	0,283
643,93	0,287
644,18	0,290
644,44	0,293
644,70	0,297
644,95	0,301
645,21	0,304
645,46	0,307
645,72	0,310
645,98	0,314
646,23	0,318
646,49	0,323
646,74	0,327
647,00	0,330
647,26	0,335
647,51	0,340
647,77	0,344
648,02	0,349
648,28	0,353
648,54	0,357
648,79	0,363
649,05	0,368
649,30	0,372
649,56	0,378
649,81	0,382
650,07	0,387
650,33	0,394
650,58	0,399
650,84	0,406
651,09	0,412
651,35	0,418
651,60	0,425
651,86	0,432
652,12	0,439
652,37	0,446
652,63	0,454
652,88	0,462
653,14	0,469
653,39	0,476
653,65	0,484
653,91	0,491
654,16	0,499
654,42	0,506
654,67	0,515
654,93	0,522
655,18	0,529
655,44	0,538
655,70	0,546
655,95	0,555
656,21	0,564
656,46	0,572
656,72	0,580
656,97	0,589
657,23	0,600
657,49	0,606
657,74	0,613
658,00	0,619
658,25	0,627
658,51	0,636
658,76	0,642
659,02	0,650
659,27	0,656
659,53	0,662
659,78	0,670
660,04	0,676
660,30	0,681
660,55	0,684
660,81	0,688
661,06	0,694
661,32	0,699
661,57	0,703
661,83	0,705
662,08	0,708
662,34	0,711
662,59	0,712
662,85	0,712
663,11	0,712
663,36	0,713
663,62	0,712
663,87	0,713
664,13	0,709
664,38	0,707
664,64	0,703
664,89	0,699
665,15	0,695
665,40	0,692
665,66	0,686
665,91	0,681
666,17	0,675
666,42	0,670
666,68	0,662
666,93	0,653
667,19	0,647
667,45	0,638
667,70	0,629
667,96	0,623
668,21	0,613
668,47	0,603
668,72	0,593
668,98	0,582
669,23	0,571
669,49	0,560
669,74	0,549
670,00	0,538
670,25	0,527
670,51	0,516
670,76	0,505
671,02	0,493
671,27	0,482
671,53	0,470
671,78	0,458
672,04	0,447
672,29	0,435
672,55	0,424
672,80	0,412
673,06	0,400
673,31	0,389
673,57	0,378
673,82	0,366
674,08	0,355
674,33	0,344
674,59	0,334
674,84	0,323
675,10	0,312
675,35	0,302
675,61	0,292
675,86	0,283
676,12	0,274
676,37	0,265
676,63	0,256
676,88	0,247
677,14	0,239
677,39	0,231
677,65	0,223
677,90	0,215
678,16	0,208
678,41	0,200
678,67	0,193
678,92	0,186
679,18	0,179
679,43	0,173
679,69	0,167
679,94	0,161
680,20	0,155
680,45	0,150
680,71	0,145
680,96	0,140
681,21	0,135
681,47	0,131
681,72	0,127
681,98	0,123
682,23	0,119
682,49	0,115
682,74	0,111
683,00	0,107
683,25	0,103
683,51	0,100
683,76	0,097
684,02	0,094
684,27	0,091
684,53	0,089
684,78	0,086
685,04	0,083
685,29	0,081
685,54	0,079
685,80	0,077
686,05	0,075
686,31	0,073
686,56	0,072
686,82	0,070
687,07	0,068
687,33	0,066
687,58	0,064
687,84	0,063
688,09	0,061
688,34	0,060
688,60	0,058
688,85	0,057
689,11	0,056
689,36	0,055
689,62	0,054
689,87	0,053
690,13	0,052
690,38	0,051
690,64	0,051
690,89	0,050
691,14	0,049
691,40	0,048
691,65	0,047
691,91	0,046
692,16	0,045
692,42	0,045
692,67	0,044
692,92	0,044
693,18	0,043
693,43	0,042
693,69	0,042
693,94	0,041
694,20	0,041
694,45	0,040
694,71	0,040
694,96	0,039
695,21	0,039
695,47	0,039
695,72	0,038
695,98	0,038
696,23	0,037
696,48	0,037
696,74	0,037
696,99	0,037
697,25	0,037
697,50	0,037
697,76	0,037
698,01	0,037
698,26	0,037
698,52	0,036
698,77	0,036
699,03	0,036
699,28	0,035
699,54	0,034
699,79	0,034
700,04	0,033
700,30	0,033
700,55	0,032
700,81	0,033
701,06	0,033
701,31	0,033
701,57	0,033
701,82	0,033
702,08	0,033
702,33	0,033
702,58	0,032
702,84	0,032
703,09	0,032
703,35	0,032
703,60	0,032
703,85	0,032
704,11	0,032
704,36	0,032
704,62	0,032
704,87	0,032
705,12	0,032
705,38	0,031
705,63	0,031
705,89	0,031
706,14	0,030
706,39	0,030
706,65	0,030
706,90	0,030
707,16	0,030
707,41	0,029
707,66	0,029
707,92	0,029
708,17	0,029
708,42	0,029
708,68	0,028
708,93	0,029
709,19	0,029
709,44	0,029
709,69	0,029
709,95	0,029
710,20	0,028
710,46	0,028
710,71	0,029
710,96	0,029
711,22	0,029
711,47	0,029
711,72	0,030
711,98	0,029
712,23	0,029
712,48	0,029
712,74	0,029
712,99	0,029
713,25	0,028
713,50	0,028
713,75	0,028
714,01	0,027
714,26	0,027
714,51	0,027
714,77	0,027
715,02	0,027
715,28	0,028
715,53	0,028
715,78	0,028
716,04	0,028
716,29	0,027
716,54	0,027
716,80	0,026
717,05	0,026
717,30	0,026
717,56	0,026
717,81	0,026
718,06	0,026
718,32	0,026
718,57	0,026
718,82	0,027
719,08	0,026
719,33	0,026
719,58	0,026
719,84	0,026
720,09	0,026
720,35	0,026
720,60	0,025
720,85	0,025
721,11	0,025
721,36	0,025
721,61	0,024
721,87	0,024
722,12	0,024
722,37	0,024
722,63	0,025
722,88	0,025
723,13	0,025
723,39	0,025
723,64	0,025
723,89	0,025
724,15	0,025
724,40	0,024
724,65	0,024
724,91	0,024
725,16	0,024
725,41	0,024
725,67	0,024
725,92	0,024
726,17	0,024
726,42	0,024
726,68	0,024
726,93	0,024
727,18	0,024
727,44	0,024
727,69	0,024
727,94	0,024
728,20	0,024
728,45	0,024
728,70	0,024
728,96	0,023
729,21	0,023
729,46	0,023
729,72	0,023
729,97	0,023
730,22	0,024
730,48	0,024
730,73	0,024
730,98	0,024
731,23	0,024
731,49	0,023
731,74	0,023
731,99	0,024
732,25	0,024
732,50	0,024
732,75	0,024
733,01	0,024
733,26	0,024
733,51	0,024
733,76	0,023
734,02	0,023
734,27	0,023
734,52	0,022
734,78	0,023
735,03	0,023
735,28	0,023
735,54	0,023
735,79	0,023
736,04	0,023
736,29	0,023
736,55	0,024
736,80	0,024
737,05	0,024
737,31	0,024
737,56	0,024
737,81	0,024
738,06	0,023
738,32	0,023
738,57	0,022
738,82	0,022
739,07	0,022
739,33	0,021
739,58	0,022
739,83	0,022
740,09	0,022
740,34	0,023
740,59	0,022
740,84	0,022
741,10	0,023
741,35	0,022
741,60	0,022
741,86	0,022
742,11	0,022
742,36	0,022
742,61	0,022
742,87	0,022
743,12	0,022
743,37	0,021
743,62	0,021
743,88	0,021
744,13	0,021
744,38	0,021
744,63	0,021
744,89	0,021
745,14	0,021
745,39	0,021
745,64	0,021
745,90	0,021
746,15	0,021
746,40	0,021
746,65	0,021
746,91	0,021
747,16	0,021
747,41	0,021
747,66	0,021
747,92	0,020
748,17	0,021
748,42	0,021
748,67	0,021
748,93	0,021
749,18	0,021
749,43	0,021
749,68	0,021
749,94	0,021
750,19	0,021
750,44	0,020
750,69	0,021
750,95	0,021
751,20	0,022
751,45	0,021
751,70	0,021
751,96	0,021
752,21	0,021
752,46	0,020
752,71	0,020
752,96	0,019
753,22	0,019
753,47	0,019
753,72	0,020
753,97	0,019
754,23	0,020
754,48	0,020
754,73	0,020
754,98	0,020
755,24	0,020
755,49	0,020
755,74	0,020
755,99	0,020
756,24	0,020
756,50	0,020
756,75	0,020
757,00	0,020
757,25	0,020
757,50	0,020
757,76	0,020
758,01	0,019
758,26	0,020
758,51	0,020
758,77	0,020
759,02	0,020
759,27	0,019
759,52	0,019
759,77	0,020
760,03	0,020
760,28	0,020
760,53	0,019
760,78	0,019
761,03	0,019
761,29	0,020
761,54	0,019
761,79	0,019
762,04	0,019
762,29	0,020
762,55	0,020
762,80	0,020
763,05	0,020
763,30	0,020
763,55	0,019
763,81	0,019
764,06	0,018
764,31	0,018
764,56	0,018
764,81	0,018
765,07	0,019
765,32	0,019
765,57	0,020
765,82	0,020
766,07	0,021
766,32	0,021
766,58	0,021
766,83	0,020
767,08	0,020
767,33	0,020
767,58	0,019
767,84	0,019
768,09	0,020
768,34	0,019
768,59	0,020
768,84	0,020
769,09	0,020
769,35	0,020
769,60	0,020
769,85	0,019
770,10	0,019
770,35	0,019
770,60	0,019
770,86	0,019
771,11	0,019
771,36	0,019
771,61	0,019
771,86	0,019
772,11	0,019
772,37	0,020
772,62	0,020
772,87	0,020
773,12	0,020
773,37	0,020
773,62	0,019
773,88	0,019
774,13	0,019
774,38	0,019
774,63	0,019
774,88	0,019
775,13	0,019
775,38	0,019
775,64	0,019
775,89	0,020
776,14	0,020
776,39	0,020
776,64	0,020
776,89	0,019
777,15	0,019
777,40	0,018
777,65	0,018
777,90	0,018
778,15	0,018
778,40	0,018
778,65	0,019
778,91	0,019
779,16	0,020
779,41	0,020
779,66	0,021
779,91	0,020
780,16	0,020
780,41	0,020
780,66	0,019
780,92	0,019
781,17	0,019
781,42	0,018
781,67	0,018
781,92	0,018
782,17	0,019
782,42	0,019
782,68	0,019
782,93	0,019
783,18	0,019
783,43	0,019
783,68	0,019
783,93	0,018
784,18	0,018
784,43	0,018
784,69	0,017
784,94	0,017
785,19	0,017
785,44	0,018
785,69	0,019
785,94	0,019
786,19	0,019
786,44	0,019
786,69	0,019
786,95	0,020
787,20	0,020
787,45	0,020
787,70	0,020
787,95	0,020
788,20	0,020
788,45	0,020
788,70	0,019
788,95	0,019
789,21	0,018
789,46	0,018
789,71	0,018
789,96	0,017
790,21	0,017
790,46	0,018
790,71	0,017
790,96	0,017
791,21	0,018
791,46	0,018
791,72	0,019
791,97	0,019
792,22	0,019
792,47	0,019
792,72	0,019
792,97	0,018
793,22	0,018
793,47	0,018
793,72	0,018
793,97	0,017
794,22	0,018
794,47	0,018
794,73	0,018
794,98	0,018
795,23	0,017
795,48	0,017
795,73	0,017
795,98	0,017
796,23	0,017
796,48	0,017
796,73	0,017
796,98	0,018
797,23	0,018
797,48	0,018
797,74	0,019
797,99	0,018
798,24	0,018
798,49	0,018
798,74	0,017
798,99	0,017
799,24	0,017
799,49	0,017
799,74	0,018
799,99	0,018
800,24	0,018
800,49	0,018
800,74	0,018
800,99	0,017
801,24	0,016
801,50	0,016
801,75	0,016
802,00	0,016
802,25	0,017
802,50	0,017
802,75	0,017
803,00	0,017
803,25	0,017
803,50	0,017
803,75	0,017
804,00	0,017
804,25	0,017
804,50	0,018
804,75	0,018
805,00	0,018
805,25	0,018
805,50	0,018
805,75	0,018
806,00	0,018
806,26	0,017
806,51	0,017
806,76	0,017
807,01	0,017
807,26	0,017
807,51	0,017
807,76	0,017
808,01	0,018
808,26	0,018
808,51	0,018
808,76	0,018
809,01	0,018
809,26	0,018
809,51	0,018
809,76	0,017
810,01	0,017
810,26	0,017
810,51	0,017
810,76	0,017
811,01	0,016
811,26	0,016
811,51	0,016
811,76	0,016
812,01	0,016
812,26	0,016
812,51	0,016
812,76	0,017
813,01	0,017
813,26	0,016
813,51	0,017
813,76	0,017
814,01	0,017
814,26	0,016
814,51	0,016
814,76	0,016
815,02	0,016
815,27	0,017
815,52	0,016
815,77	0,016
816,02	0,016
816,27	0,017
816,52	0,017
816,77	0,017
817,02	0,016
817,27	0,017
817,52	0,017
817,77	0,017
818,02	0,016
818,27	0,016
818,52	0,016
818,77	0,016
819,02	0,017
819,27	0,017
819,52	0,017
819,77	0,017
820,02	0,017
820,27	0,017
820,52	0,017
820,77	0,016
821,02	0,016
821,27	0,015
821,52	0,015
821,77	0,016
822,02	0,015
822,26	0,015
822,51	0,014
822,76	0,014
823,01	0,014
823,26	0,014
823,51	0,014
823,76	0,014
824,01	0,014
824,26	0,015
824,51	0,015
824,76	0,015
825,01	0,015
825,26	0,015
825,51	0,015
825,76	0,015
826,01	0,016
826,26	0,015
826,51	0,015
826,76	0,015
827,01	0,014
827,26	0,014
827,51	0,015
827,76	0,014
828,01	0,015
828,26	0,015
828,51	0,015
828,76	0,015
829,01	0,015
829,26	0,015
829,51	0,015
829,76	0,014
830,01	0,015
830,26	0,015
830,51	0,015
830,76	0,015
831,00	0,015
831,25	0,015
831,50	0,015
831,75	0,015
832,00	0,015
832,25	0,015
832,50	0,015
832,75	0,015
833,00	0,015
833,25	0,014
833,50	0,014
833,75	0,015
834,00	0,015
834,25	0,015
834,50	0,015
834,75	0,015
835,00	0,015
835,25	0,015
835,50	0,015
835,74	0,016
835,99	0,016
836,24	0,016
836,49	0,016
836,74	0,017
836,99	0,016
837,24	0,015
837,49	0,014
837,74	0,014
837,99	0,013
838,24	0,013
838,49	0,013
838,74	0,013
838,99	0,013
839,24	0,013
839,48	0,013
839,73	0,013
839,98	0,013
840,23	0,012
840,48	0,013
840,73	0,012
840,98	0,012
841,23	0,012
841,48	0,012
841,73	0,012
841,98	0,013
842,23	0,013
842,48	0,013
842,72	0,013
842,97	0,013
843,22	0,013
843,47	0,013
843,72	0,013
843,97	0,013
844,22	0,013
844,47	0,013
844,72	0,013
844,97	0,013
845,22	0,013
845,46	0,014
845,71	0,014
845,96	0,013
846,21	0,013
846,46	0,013
846,71	0,012
846,96	0,013
847,21	0,012
847,46	0,012
847,71	0,012
847,95	0,012
848,20	0,012
848,45	0,012
848,70	0,012
848,95	0,011
849,20	0,011
849,45	0,012
849,70	0,012
849,95	0,012
850,19	0,012
850,44	0,012
850,69	0,012
850,94	0,012
851,19	0,012
851,44	0,012
851,69	0,012
851,94	0,012
852,19	0,012
852,43	0,012
852,68	0,012
852,93	0,011
853,18	0,011
853,43	0,010
853,68	0,009
853,93	0,010
854,18	0,010
854,42	0,010
854,67	0,010
854,92	0,010
855,17	0,011
855,42	0,011
855,67	0,011
855,92	0,011
856,16	0,011
856,41	0,011
856,66	0,011
856,91	0,011
857,16	0,011
857,41	0,011
857,66	0,011
857,91	0,010
858,15	0,010
858,40	0,010
858,65	0,010
858,90	0,010
859,15	0,010
859,40	0,010
859,65	0,010
859,89	0,011
860,14	0,012
860,39	0,012
860,64	0,012
860,89	0,012
861,14	0,011
861,38	0,011
861,63	0,011
861,88	0,011
862,13	0,011
862,38	0,011
862,63	0,011
862,88	0,011
863,12	0,011
863,37	0,011
863,62	0,010
863,87	0,011
864,12	0,011
864,37	0,011
864,61	0,011
864,86	0,012
865,11	0,012
865,36	0,012
865,61	0,012
865,86	0,012
866,10	0,012
866,35	0,012
866,60	0,012
866,85	0,012
867,10	0,012
867,35	0,011
867,59	0,011
867,84	0,011
868,09	0,010
868,34	0,010
868,59	0,010
868,83	0,011
869,08	0,011
869,33	0,011
869,58	0,011
869,83	0,011
870,08	0,011
870,32	0,010
870,57	0,010
870,82	0,010
871,07	0,010
871,32	0,010
871,56	0,010
871,81	0,011
872,06	0,011
872,31	0,011
872,56	0,011
872,81	0,010
873,05	0,011
873,30	0,011
873,55	0,010
873,80	0,010
874,05	0,010
874,29	0,010
874,54	0,010
874,79	0,010
875,04	0,010
875,29	0,010
875,53	0,010
875,78	0,010
876,03	0,010
876,28	0,010
876,52	0,011
876,77	0,011
877,02	0,011
877,27	0,011
877,52	0,011
877,76	0,010
878,01	0,010
878,26	0,010
878,51	0,010
878,76	0,010
879,00	0,011
879,25	0,011
879,50	0,011
879,75	0,011
880,00	0,011
880,24	0,011
880,49	0,011
880,74	0,010
880,99	0,010
881,23	0,010
881,48	0,010
881,73	0,010
881,98	0,010
882,22	0,009
882,47	0,009
882,72	0,009
882,97	0,009
883,22	0,009
883,46	0,008
883,71	0,008
883,96	0,009
884,21	0,009
884,45	0,008
884,70	0,008
884,95	0,009
885,20	0,009
885,44	0,009
885,69	0,009
885,94	0,009
886,19	0,010
886,43	0,010
886,68	0,010
886,93	0,010
887,18	0,011
887,42	0,010
887,67	0,011
887,92	0,010
888,17	0,010
888,42	0,010
888,66	0,010
888,91	0,010
889,16	0,010
889,40	0,009
889,65	0,009
889,90	0,009
890,15	0,009
890,39	0,009
890,64	0,009
890,89	0,009
891,14	0,009
891,38	0,010
891,63	0,010
891,88	0,010
892,13	0,010
892,37	0,010
892,62	0,010
892,87	0,009
893,12	0,009
893,36	0,009
893,61	0,009
893,86	0,009
894,11	0,010
894,35	0,010
894,60	0,010
894,85	0,011
895,09	0,011
895,34	0,011
895,59	0,011
895,84	0,010
896,08	0,010
896,33	0,011
896,58	0,011
896,82	0,010
897,07	0,011
897,32	0,011
897,57	0,012
897,81	0,012
898,06	0,012
898,31	0,012
898,55	0,012
898,80	0,012
899,05	0,012
899,30	0,012
899,54	0,012
899,79	0,013
900,04	0,013
900,28	0,013
900,53	0,013
900,78	0,014
901,03	0,014
901,27	0,014
901,52	0,015
901,77	0,015
902,01	0,015
902,26	0,016
902,51	0,016
902,75	0,016
903,00	0,016
903,25	0,016
903,50	0,016
903,74	0,016
903,99	0,016
904,24	0,017
904,48	0,016
904,73	0,017
904,98	0,018
905,22	0,018
905,47	0,018
905,72	0,018
905,96	0,018
906,21	0,018
906,46	0,018
906,70	0,019
906,95	0,018
907,20	0,018
907,45	0,018
907,69	0,018
907,94	0,018
908,19	0,018
908,43	0,018
908,68	0,019
908,93	0,019
909,17	0,019
909,42	0,018
909,67	0,018
909,91	0,017
910,16	0,017
910,41	0,016
910,65	0,016
910,90	0,015
911,15	0,015
911,39	0,015
911,64	0,015
911,89	0,014
912,13	0,013
912,38	0,013
912,63	0,012
912,87	0,012
913,12	0,012
913,37	0,012
913,61	0,013
913,86	0,013
914,11	0,012
914,35	0,012
914,60	0,012
914,85	0,012
915,09	0,012
915,34	0,012
915,58	0,011
915,83	0,011
916,08	0,011
916,32	0,010
916,57	0,010
916,82	0,010
917,06	0,010
917,31	0,011
917,56	0,010
917,80	0,011
918,05	0,011
918,30	0,011
918,54	0,011
918,79	0,011
919,04	0,010
919,28	0,010
919,53	0,010
919,77	0,010
920,02	0,010
920,27	0,010
920,51	0,009
920,76	0,009
921,01	0,009
921,25	0,009
921,50	0,009
921,74	0,009
921,99	0,009
922,24	0,009
922,48	0,008
922,73	0,008
922,98	0,008
923,22	0,008
923,47	0,008
923,71	0,008
923,96	0,008
924,21	0,008
924,45	0,008
924,70	0,008
924,95	0,008
925,19	0,008
925,44	0,009
925,68	0,008
925,93	0,008
926,18	0,008
926,42	0,008
926,67	0,007
926,91	0,007
927,16	0,007
927,41	0,007
927,65	0,007
927,90	0,007
928,14	0,007
928,39	0,007
928,64	0,007
928,88	0,007
929,13	0,007
929,37	0,007
929,62	0,007
929,87	0,007
930,11	0,007
930,36	0,007
930,60	0,006
930,85	0,006
931,10	0,006
931,34	0,006
931,59	0,005
931,83	0,005
932,08	0,005
932,33	0,005
932,57	0,005
932,82	0,004
933,06	0,004
933,31	0,004
933,56	0,004
933,80	0,004
934,05	0,004
934,29	0,004
934,54	0,004
934,78	0,004
935,03	0,004
935,28	0,003
935,52	0,003
935,77	0,003
936,01	0,003
936,26	0,003
936,51	0,002
936,75	0,002
937,00	0,002
937,24	0,002
937,49	0,001
937,73	0,001
937,98	0,001
938,22	0,001
938,47	0,001
938,72	0,001
938,96	0,000
939,21	-0,000
939,45	-0,001
939,70	-0,001
939,94	-0,001
940,19	-0,001
940,44	-0,002
940,68	-0,002
940,93	-0,003
941,17	-0,003
941,42	-0,003
941,66	-0,004
941,91	-0,004
942,15	-0,004
942,40	-0,004
942,65	-0,004
942,89	-0,004
943,14	-0,005
943,38	-0,006
943,63	-0,007
943,87	-0,007
944,12	-0,007
944,36	-0,007
944,61	-0,008
944,85	-0,008
945,10	-0,008
945,35	-0,008
945,59	-0,008
945,84	-0,009
946,08	-0,009
946,33	-0,010
946,57	-0,010
946,82	-0,010
947,06	-0,010
947,31	-0,010
947,55	-0,011
947,80	-0,012
948,04	-0,012
948,29	-0,013
948,54	-0,014
948,78	-0,014
949,03	-0,015
949,27	-0,015
949,52	-0,015
949,76	-0,016
950,01	-0,016
950,25	-0,017
950,50	-0,017
950,74	-0,017
950,99	-0,018
951,23	-0,018
951,48	-0,018
951,72	-0,018
951,97	-0,018
952,21	-0,019
952,46	-0,018
952,70	-0,019
952,95	-0,019
953,19	-0,019
953,44	-0,020
953,68	-0,021
953,93	-0,021
954,17	-0,021
954,42	-0,021
954,66	-0,021
954,91	-0,022
955,15	-0,022
955,40	-0,022
955,64	-0,021
955,89	-0,021
956,13	-0,021
956,38	-0,021
956,62	-0,021
956,87	-0,021
957,11	-0,021
957,36	-0,021
957,60	-0,021
957,85	-0,022
958,09	-0,022
958,34	-0,022
958,58	-0,023
958,83	-0,023
959,07	-0,023
959,32	-0,023
959,56	-0,023
959,81	-0,023
960,05	-0,023
960,30	-0,023
960,54	-0,023
960,79	-0,023
961,03	-0,024
961,28	-0,024
961,52	-0,025
961,77	-0,025
962,01	-0,025
962,26	-0,025
962,50	-0,025
962,75	-0,026
962,99	-0,026
963,24	-0,026
963,48	-0,026
963,73	-0,026
963,97	-0,027
964,21	-0,028
964,46	-0,028
964,70	-0,029
964,95	-0,029
965,19	-0,030
965,44	-0,030
965,68	-0,030
965,93	-0,030
966,17	-0,031
966,42	-0,030
966,66	-0,031
966,91	-0,031
967,15	-0,031
967,40	-0,031
967,64	-0,030
967,88	-0,030
968,13	-0,029
968,37	-0,029
968,62	-0,029
968,86	-0,029
969,11	-0,029
969,35	-0,030
969,60	-0,030
969,84	-0,030
970,09	-0,031
970,33	-0,032
970,57	-0,032
970,82	-0,032
971,06	-0,033
971,31	-0,032
971,55	-0,032
971,80	-0,032
972,04	-0,032
972,29	-0,033
972,53	-0,033
972,77	-0,034
973,02	-0,034
973,26	-0,034
973,51	-0,034
973,75	-0,033
974,00	-0,033
974,24	-0,033
974,48	-0,033
974,73	-0,033
974,97	-0,033
975,22	-0,033
975,46	-0,034
975,71	-0,034
975,95	-0,034
976,19	-0,034
976,44	-0,034
976,68	-0,034
976,93	-0,034
977,17	-0,034
977,42	-0,033
977,66	-0,033
977,90	-0,033
978,15	-0,033
978,39	-0,033
978,64	-0,033
978,88	-0,033
979,12	-0,034
979,37	-0,033
979,61	-0,033
979,86	-0,034
980,10	-0,034
980,35	-0,033
980,59	-0,033
980,83	-0,032
981,08	-0,032
981,32	-0,032
981,57	-0,032
981,81	-0,032
982,05	-0,032
982,30	-0,033
982,54	-0,033
982,79	-0,033
983,03	-0,033
983,27	-0,033
983,52	-0,033
983,76	-0,033
984,01	-0,033
984,25	-0,034
984,49	-0,034
984,74	-0,034
984,98	-0,034
985,23	-0,033
985,47	-0,033
985,71	-0,032
985,96	-0,032
986,20	-0,031
986,45	-0,031
986,69	-0,030
986,93	-0,031
987,18	-0,031
987,42	-0,031
987,66	-0,031
987,91	-0,031
988,15	-0,031
988,40	-0,032
988,64	-0,032
988,88	-0,031
989,13	-0,031
989,37	-0,031
989,61	-0,031
989,86	-0,031
990,10	-0,031
990,35	-0,031
990,59	-0,030
990,83	-0,030
991,08	-0,030
991,32	-0,029
991,56	-0,029
991,81	-0,029
992,05	-0,028
992,30	-0,028
992,54	-0,028
992,78	-0,029
993,03	-0,028
993,27	-0,028
993,51	-0,028
993,76	-0,028
994,00	-0,028
994,24	-0,029
994,49	-0,028
994,73	-0,028
994,98	-0,028
995,22	-0,028
995,46	-0,028
995,71	-0,028
995,95	-0,027
996,19	-0,026
996,44	-0,026
996,68	-0,026
996,92	-0,026
997,17	-0,026
997,41	-0,025
997,65	-0,026
997,90	-0,026
998,14	-0,026
998,38	-0,026
998,63	-0,025
998,87	-0,025
999,11	-0,025
999,36	-0,025
999,60	-0,025
999,84	-0,025
1000,09	-0,025
1000,33	-0,025
1000,57	-0,025
1000,82	-0,025
1001,06	-0,025
1001,30	-0,024
1001,55	-0,024
1001,79	-0,025
1002,03	-0,025
1002,28	-0,025
1002,52	-0,025
1002,76	-0,024
1003,01	-0,025
1003,25	-0,024
1003,49	-0,023
1003,74	-0,023
1003,98	-0,022
1004,22	-0,021
1004,47	-0,021
1004,71	-0,020
1004,95	-0,021
1005,20	-0,020
1005,44	-0,021
1005,68	-0,021
1005,93	-0,020
1006,17	-0,020
1006,41	-0,019
1006,66	-0,019
1006,90	-0,019
1007,14	-0,018
1007,38	-0,019
1007,63	-0,018
1007,87	-0,018
1008,11	-0,018
1008,36	-0,016
1008,60	-0,017
1008,84	-0,017
1009,09	-0,016
1009,33	-0,016
1009,57	-0,016
1009,81	-0,016
1010,06	-0,017
1010,30	-0,016
1010,54	-0,015
1010,79	-0,015
1011,03	-0,014
1011,27	-0,014
1011,52	-0,014
1011,76	-0,013
1012,00	-0,014
1012,24	-0,013
1012,49	-0,013
1012,73	-0,013
1012,97	-0,012
1013,22	-0,011
1013,46	-0,011
1013,70	-0,011
1013,94	-0,012
1014,19	-0,012
1014,43	-0,012
1014,67	-0,013
1014,92	-0,014
1015,16	-0,014
1015,40	-0,013
1015,64	-0,012
1015,89	-0,011
1016,13	-0,010
1016,37	-0,010
1016,62	-0,010
1016,86	-0,010
1017,10	-0,010
1017,34	-0,010
1017,59	-0,010
1017,83	-0,011
1018,07	-0,011
1018,31	-0,010
1018,56	-0,009
1018,80	-0,009
1019,04	-0,009
1019,28	-0,009
1019,53	-0,009
1019,77	-0,009
1020,01	-0,010
1020,26	-0,011
1020,50	-0,011
1020,74	-0,011
1020,98	-0,011
1021,23	-0,011
1021,47	-0,010
1021,71	-0,009
1021,95	-0,009
1022,20	-0,008
1022,44	-0,007
1022,68	-0,007
1022,92	-0,006
1023,17	-0,006
1023,41	-0,006
1023,65	-0,006
1023,89	-0,006
1024,14	-0,007
1024,38	-0,007
1024,62	-0,008
1024,86	-0,007
1025,11	-0,007
1025,35	-0,007
1025,59	-0,005
1025,83	-0,005
1026,07	-0,005
1026,32	-0,006
1026,56	-0,006
1026,80	-0,006
1027,04	-0,006
1027,29	-0,007
1027,53	-0,007
1027,77	-0,008
1028,01	-0,008
1028,26	-0,008
1028,50	-0,007
1028,74	-0,007
1028,98	-0,007
1029,22	-0,006
1029,47	-0,005
1029,71	-0,005
1029,95	-0,004
1030,19	-0,005
1030,44	-0,004
1030,68	-0,003
1030,92	-0,004
1031,16	-0,005
1031,40	-0,005
1031,65	-0,005
1031,89	-0,005
1032,13	-0,005
1032,37	-0,006
1032,62	-0,005
1032,86	-0,003
1033,10	-0,003
1033,34	-0,003
1033,58	-0,003
1033,83	-0,003
1034,07	-0,002
1034,31	-0,003
1034,55	-0,003
1034,79	-0,003
1035,04	-0,002
1035,28	-0,002
1035,52	-0,002
1035,76	-0,002
1036,00	-0,002
1036,25	-0,003
1036,49	-0,002
1036,73	-0,002
1036,97	-0,003
1037,21	-0,003
1037,46	-0,003
1037,70	-0,003
1037,94	-0,003
1038,18	-0,004
1038,42	-0,005
1038,67	-0,005
1038,91	-0,004
1039,15	-0,004
1039,39	-0,005
1039,63	-0,005
1039,88	-0,005
1040,12	-0,004
1040,36	-0,003
1040,60	-0,002
1040,84	-0,001
1041,08	0,001
1041,33	0,001
1041,57	0,000
1041,81	0,000
1042,05	0,000
1042,29	0,000
1042,53	0,001
1042,78	-0,000
1043,02	0,001
1043,26	0,001
1043,50	0,002
1043,74	0,002
1043,99	0,003
1044,23	0,002
1044,47	0,001
1044,71	0,000
1044,95	-0,000
1045,19	-0,001
1045,44	-0,001
1045,68	-0,002
1045,92	-0,001
1046,16	0,000
1046,40	0,000
1046,64	0,001
1046,88	0,002
1047,13	0,001
1047,37	0,001
1047,61	0,001
1047,85	0,000
1048,09	0,000
1048,33	0,001
1048,58	0,001
1048,82	0,003
1049,06	0,004
1049,30	0,003
1049,54	0,003
1049,78	0,004
1050,02	0,003
1050,27	0,003
1050,51	0,002
1050,75	0,002
1050,99	0,002
1051,23	0,002
1051,47	0,002
1051,71	0,004
1051,96	0,005
1052,20	0,004
1052,44	0,004
1052,68	0,004
1052,92	0,004
1053,16	0,004
1053,40	0,004
1053,65	0,002
1053,89	0,003
1054,13	0,003
1054,37	0,005
1054,61	0,004
1054,85	0,004
1055,09	0,004
1055,33	0,003
1055,58	0,003
1055,82	0,002
1056,06	0,001
1056,30	0,002
1056,54	0,001
1056,78	0,002
1057,02	0,003
1057,26	0,004
1057,51	0,005
1057,75	0,004
1057,99	0,004
1058,23	0,004
1058,47	0,003
1058,71	0,003
1058,95	0,004
1059,19	0,004
1059,43	0,006
1059,68	0,006
1059,92	0,008
1060,16	0,008
1060,40	0,009
1060,64	0,008
1060,88	0,009
1061,12	0,007
1061,36	0,005
1061,60	0,004
1061,84	0,004
1062,09	0,001
1062,33	0,000
1062,57	-0,001
1062,81	0,001
1063,05	0,001
1063,29	0,001
1063,53	0,000
1063,77	0,001
1064,01	0,002
1064,25	0,003
1064,50	0,003
1064,74	0,004
1064,98	0,004
1065,22	0,005
1065,46	0,006
1065,70	0,008
1065,94	0,009
1066,18	0,008
1066,42	0,007
1066,66	0,006
1066,90	0,007
1067,14	0,008
1067,39	0,007
1067,63	0,005
1067,87	0,006
1068,11	0,004
1068,35	0,006
1068,59	0,006
1068,83	0,003
1069,07	0,003
1069,31	0,002
1069,55	0,002
1069,79	0,003
1070,03	0,002
1070,27	0,002
1070,52	0,002
1070,76	0,001
1071,00	0,001
1071,24	0,001
1071,48	-0,000
1071,72	0,000
1071,96	-0,000
1072,20	0,001
1072,44	0,001
1072,68	0,004
1072,92	0,006
1073,16	0,005
1073,40	0,006
1073,64	0,008
1073,88	0,008
1074,12	0,007
1074,36	0,005
1074,61	0,002
1074,85	0,005
1075,09	0,005
1075,33	0,005
1075,57	0,004
1075,81	0,005
1076,05	0,005
1076,29	0,007
1076,53	0,005
1076,77	0,004
1077,01	0,002
1077,25	0,001
1077,49	0,002
1077,73	0,004
1077,97	0,004
1078,21	0,005
1078,45	0,004
1078,69	0,004
1078,93	0,002
1079,17	0,000
1079,41	-0,004
1079,65	-0,007
1079,89	-0,008
1080,13	-0,008
1080,37	-0,006
1080,61	-0,004
1080,86	-0,005
1081,10	-0,004
1081,34	-0,001
1081,58	0,002
1081,82	0,002
1082,06	0,001
1082,30	0,001
1082,54	0,000
1082,78	0,002
1083,02	-0,000
1083,26	-0,004
1083,50	-0,003
1083,74	-0,001
1083,98	0,001
1084,22	0,000
1084,46	-0,000
1084,70	-0,000
1084,94	0,002
1085,18	-0,001
1085,42	-0,002
1085,66	-0,005
1085,90	-0,005
1086,14	-0,006
1086,38	-0,005
1086,62	-0,005
1086,86	-0,004
1087,10	-0,006
1087,34	-0,003
1087,58	-0,002
1087,82	0,002
1088,06	0,001
1088,30	0,001
1088,54	0,003
1088,78	0,006
1089,02	0,006
1089,26	0,006
1089,50	0,001
1089,74	0,004
1089,98	0,006
1090,22	0,004
1090,46	0,005
1090,70	0,003
1090,94	0,003
1091,18	0,004
1091,42	0,004
1091,66	0,006
1091,90	0,006
1092,14	0,004
1092,38	0,005
1092,62	0,005
1092,86	0,008
1093,10	0,004
1093,34	0,000
1093,58	0,001
1093,82	0,001
1094,06	0,003
1094,30	0,003
1094,54	0,002
1094,78	0,006
1095,01	0,006
1095,25	0,005
1095,49	0,008
1095,73	0,006
1095,97	0,007
1096,21	0,006
1096,45	0,003
1096,69	-0,000
1096,93	-0,001
1097,17	-0,003
1097,41	-0,006
1097,65	-0,007
1097,89	-0,005
1098,13	-0,006
1098,37	-0,006
1098,61	-0,008
1098,85	-0,009
1099,09	-0,009
1099,33	-0,007
1099,57	-0,008
1099,81	-0,010
1100,05	-0,008
1100,29	-0,009
1100,53	-0,004
1100,77	0,000
1101,00	-0,003
1101,24	-0,005
1101,48	-0,003
1101,72	-0,001
1101,96	-0,001
1102,20	-0,004
1102,44	-0,006
1102,68	-0,005
1102,92	-0,005
1103,16	-0,003
1103,40	-0,009
1103,64	-0,003
1103,88	-0,008
1104,12	-0,007
1104,36	-0,002
1104,60	0,004
1104,84	0,002
1105,07	0,008
1105,31	0,007
1105,55	0,010
1105,79	0,014
1106,03	0,015
1106,27	0,009
1106,51	0,011
1106,75	0,013
1106,99	0,013
1107,23	0,013
1107,47	0,009
1107,71	-0,005
1107,95	-0,004
1108,18	-0,013
1108,42	-0,022
1108,66	-0,024
1108,90	-0,026
1109,14	-0,017
1109,38	-0,008
1109,62	-0,008
1109,86	0,004
1110,10	0,006
1110,34	0,002
1110,58	0,003
1110,82	-0,012
1111,05	-0,010
1111,29	0,002
1111,53	0,001
1111,77	0,003
1112,01	0,001
1112,25	-0,004
1112,49	-0,002
1112,73	-0,002
1112,97	-0,012
1113,21	-0,023
1113,45	-0,025
1113,68	-0,019
1113,92	-0,024
1114,16	-0,019
1114,40	-0,022
1114,64	-0,019
1114,88	-0,025
1115,12	-0,019
1115,36	-0,017
1115,60	-0,010
1115,83	-0,012
1116,07	-0,010
1116,31	-0,023
1116,55	-0,010
1116,79	-0,010
1117,03	-0,007
1117,27	-0,010
1117,51	-0,019
1117,75	-0,033
1117,98	-0,027
1118,22	-0,032
1118,46	-0,035
1118,70	-0,041
1118,94	-0,031
1119,18	-0,014
1119,42	-0,021
1119,66	-0,005
1119,89	0,009
1120,13	0,004
1120,37	0,006
1120,61	0,007
1120,85	0,000
1121,09	0,025
1121,33	0,012
1121,57	-0,008
1121,80	-0,013
1122,04	-0,008
1122,28	-0,012
1122,52	-0,015
1122,76	-0,036
1123,00	-0,050
1123,24	-0,022
1123,47	-0,107
1123,71	-0,044
>>>>>End Processed Spectral Data<<<<<
