SpectraSuite Data File
++++++++++++++++++++++++++++++++++++
Date: Sun Jan 01 01:08:55 GMT-03:00 2006
User: Lavfis
Dark Spectrum Present: Yes
Reference Spectrum Present: Yes
Number of Sampled Component Spectra: 1
Spectrometers: HR4C5405
Integration Time (usec): 4000 (HR4C5405)
Spectra Averaged: 5 (HR4C5405)
Boxcar Smoothing: 3 (HR4C5405)
Correct for Electrical Dark: Yes (HR4C5405)
Strobe/Lamp Enabled: No (HR4C5405)
Correct for Detector Non-linearity: No (HR4C5405)
Correct for Stray Light: No (HR4C5405)
Number of Pixels in Processed Spectrum: 3648
>>>>>Begin Processed Spectral Data<<<<<
194,53	-0,000
194,80	0,765
195,07	0,765
195,34	-0,114
195,61	-0,376
195,88	-1,790
196,15	-0,000
196,42	-0,318
196,69	0,132
196,96	0,220
197,23	-0,000
197,50	0,731
197,77	0,305
198,04	0,143
198,31	0,449
198,58	-0,671
198,85	-1,192
199,12	-0,181
199,39	-0,060
199,66	0,130
199,93	0,111
200,20	0,242
200,47	-0,000
200,74	0,456
201,01	-0,000
201,28	-0,000
201,55	-0,000
201,82	-0,000
202,09	-0,000
202,36	-0,000
202,63	-0,000
202,90	-0,000
203,17	0,539
203,44	0,281
203,71	0,178
203,98	0,104
204,25	0,296
204,52	0,264
204,79	0,556
205,06	1,377
205,33	-0,000
205,60	-0,000
205,86	0,700
206,13	0,524
206,40	0,291
206,67	0,232
206,94	0,181
207,21	0,100
207,48	0,112
207,75	0,154
208,02	0,174
208,29	0,207
208,56	0,262
208,83	0,227
209,10	0,280
209,37	0,337
209,64	0,178
209,91	0,131
210,18	0,144
210,45	0,137
210,72	0,213
210,99	0,270
211,26	0,244
211,53	0,922
211,80	0,958
212,07	0,714
212,33	0,488
212,60	0,320
212,87	0,437
213,14	0,385
213,41	0,275
213,68	0,517
213,95	0,865
214,22	0,732
214,49	0,700
214,76	0,359
215,03	0,393
215,30	0,295
215,57	0,173
215,84	0,056
216,11	0,166
216,38	0,342
216,65	-0,000
216,91	-0,000
217,18	-0,000
217,45	-0,000
217,72	-0,000
217,99	-0,000
218,26	0,962
218,53	0,606
218,80	0,825
219,07	0,682
219,34	0,447
219,61	0,360
219,88	0,401
220,15	0,429
220,42	0,434
220,68	0,455
220,95	0,557
221,22	0,696
221,49	0,830
221,76	0,764
222,03	0,754
222,30	0,627
222,57	0,695
222,84	0,648
223,11	0,738
223,38	0,870
223,65	0,866
223,92	1,114
224,18	1,341
224,45	1,208
224,72	1,466
224,99	1,194
225,26	1,194
225,53	1,219
225,80	1,014
226,07	1,112
226,34	0,993
226,61	0,940
226,88	0,951
227,14	0,910
227,41	0,930
227,68	1,008
227,95	1,127
228,22	1,179
228,49	1,092
228,76	1,027
229,03	1,045
229,30	1,224
229,57	1,261
229,83	1,075
230,10	1,084
230,37	1,146
230,64	1,291
230,91	1,437
231,18	1,241
231,45	1,244
231,72	1,351
231,99	1,421
232,25	1,870
232,52	1,783
232,79	1,698
233,06	1,856
233,33	1,941
233,60	1,765
233,87	1,808
234,14	1,680
234,41	1,602
234,67	1,524
234,94	1,392
235,21	1,359
235,48	1,451
235,75	1,322
236,02	1,343
236,29	1,379
236,56	1,353
236,82	1,516
237,09	1,529
237,36	1,426
237,63	1,665
237,90	1,506
238,17	1,356
238,44	1,408
238,71	1,272
238,97	1,334
239,24	1,414
239,51	1,275
239,78	1,198
240,05	1,192
240,32	1,133
240,59	1,301
240,86	1,234
241,12	1,361
241,39	1,756
241,66	1,670
241,93	-0,000
242,20	-0,000
242,47	-0,000
242,74	2,118
243,00	1,364
243,27	0,912
243,54	1,042
243,81	1,731
244,08	-0,000
244,35	1,760
244,62	-0,000
244,88	-0,000
245,15	-0,000
245,42	-0,000
245,69	-0,000
245,96	1,388
246,23	1,464
246,50	0,844
246,76	0,803
247,03	0,730
247,30	0,628
247,57	0,580
247,84	0,646
248,11	0,563
248,37	0,616
248,64	0,653
248,91	0,696
249,18	0,738
249,45	0,755
249,72	0,774
249,99	1,090
250,25	1,032
250,52	0,989
250,79	1,195
251,06	1,497
251,33	-0,000
251,60	1,582
251,86	1,148
252,13	1,293
252,40	1,143
252,67	1,000
252,94	0,998
253,21	0,982
253,47	1,008
253,74	0,989
254,01	1,023
254,28	1,123
254,55	1,281
254,81	1,375
255,08	1,504
255,35	1,507
255,62	1,776
255,89	2,244
256,16	2,149
256,42	1,776
256,69	1,649
256,96	1,589
257,23	1,599
257,50	1,550
257,76	1,496
258,03	1,509
258,30	1,542
258,57	1,669
258,84	1,753
259,11	1,803
259,37	1,760
259,64	1,862
259,91	1,947
260,18	1,941
260,45	1,886
260,71	1,853
260,98	1,930
261,25	2,081
261,52	2,023
261,79	2,157
262,05	2,385
262,32	2,527
262,59	2,574
262,86	3,086
263,13	4,030
263,39	3,400
263,66	2,819
263,93	2,519
264,20	2,213
264,47	2,126
264,73	2,030
265,00	1,998
265,27	2,062
265,54	2,092
265,81	2,149
266,07	2,306
266,34	2,476
266,61	2,709
266,88	2,543
267,15	2,571
267,41	2,351
267,68	2,543
267,95	2,684
268,22	2,568
268,48	2,449
268,75	2,549
269,02	2,548
269,29	2,979
269,56	2,562
269,82	2,740
270,09	3,003
270,36	3,298
270,63	-0,000
270,89	3,512
271,16	2,939
271,43	2,866
271,70	2,599
271,97	2,479
272,23	2,402
272,50	2,294
272,77	2,351
273,04	2,423
273,30	2,622
273,57	2,642
273,84	2,691
274,11	2,670
274,37	2,597
274,64	2,580
274,91	2,504
275,18	2,463
275,45	2,484
275,71	2,488
275,98	2,457
276,25	2,388
276,52	2,367
276,78	2,438
277,05	2,341
277,32	2,257
277,59	2,239
277,85	2,173
278,12	2,237
278,39	2,262
278,66	2,118
278,92	2,081
279,19	2,082
279,46	2,048
279,73	2,059
279,99	2,039
280,26	2,008
280,53	2,063
280,80	2,075
281,06	2,145
281,33	2,259
281,60	2,411
281,87	2,360
282,13	2,366
282,40	2,532
282,67	2,751
282,94	2,581
283,20	2,530
283,47	2,459
283,74	2,378
284,01	2,366
284,27	2,227
284,54	2,160
284,81	2,134
285,07	2,087
285,34	2,082
285,61	2,146
285,88	2,158
286,14	2,177
286,41	2,208
286,68	2,266
286,95	2,216
287,21	2,203
287,48	2,240
287,75	2,300
288,02	2,252
288,28	2,129
288,55	2,069
288,82	2,079
289,08	2,020
289,35	1,966
289,62	1,902
289,89	1,925
290,15	2,033
290,42	2,018
290,69	2,014
290,95	1,999
291,22	2,001
291,49	2,035
291,76	1,997
292,02	1,923
292,29	1,936
292,56	1,899
292,82	1,892
293,09	1,867
293,36	1,819
293,63	1,785
293,89	1,752
294,16	1,727
294,43	1,711
294,69	1,707
294,96	1,673
295,23	1,644
295,50	1,626
295,76	1,622
296,03	1,590
296,30	1,556
296,56	1,522
296,83	1,507
297,10	1,485
297,36	1,466
297,63	1,430
297,90	1,417
298,16	1,412
298,43	1,396
298,70	1,374
298,97	1,357
299,23	1,330
299,50	1,314
299,77	1,290
300,03	1,267
300,30	1,249
300,57	1,233
300,83	1,215
301,10	1,197
301,37	1,182
301,63	1,161
301,90	1,139
302,17	1,117
302,44	1,097
302,70	1,082
302,97	1,069
303,24	1,051
303,50	1,038
303,77	1,022
304,04	1,007
304,30	0,990
304,57	0,972
304,84	0,954
305,10	0,939
305,37	0,927
305,64	0,917
305,90	0,905
306,17	0,892
306,44	0,879
306,70	0,868
306,97	0,855
307,24	0,840
307,50	0,824
307,77	0,815
308,04	0,807
308,30	0,801
308,57	0,792
308,84	0,781
309,10	0,771
309,37	0,763
309,64	0,751
309,90	0,741
310,17	0,728
310,44	0,720
310,70	0,713
310,97	0,706
311,24	0,699
311,50	0,692
311,77	0,683
312,04	0,676
312,30	0,668
312,57	0,661
312,84	0,653
313,10	0,645
313,37	0,636
313,63	0,631
313,90	0,623
314,17	0,617
314,43	0,610
314,70	0,603
314,97	0,598
315,23	0,591
315,50	0,583
315,77	0,578
316,03	0,570
316,30	0,565
316,57	0,560
316,83	0,553
317,10	0,551
317,36	0,547
317,63	0,543
317,90	0,539
318,16	0,534
318,43	0,529
318,70	0,524
318,96	0,518
319,23	0,511
319,50	0,507
319,76	0,502
320,03	0,498
320,29	0,496
320,56	0,492
320,83	0,488
321,09	0,485
321,36	0,482
321,63	0,477
321,89	0,473
322,16	0,468
322,42	0,464
322,69	0,463
322,96	0,461
323,22	0,456
323,49	0,454
323,76	0,448
324,02	0,446
324,29	0,441
324,55	0,436
324,82	0,431
325,09	0,429
325,35	0,428
325,62	0,427
325,88	0,425
326,15	0,425
326,42	0,423
326,68	0,422
326,95	0,420
327,21	0,417
327,48	0,414
327,75	0,412
328,01	0,408
328,28	0,407
328,55	0,404
328,81	0,402
329,08	0,401
329,34	0,399
329,61	0,397
329,88	0,397
330,14	0,395
330,41	0,393
330,67	0,391
330,94	0,388
331,21	0,386
331,47	0,384
331,74	0,381
332,00	0,380
332,27	0,377
332,53	0,375
332,80	0,374
333,07	0,374
333,33	0,372
333,60	0,373
333,86	0,372
334,13	0,372
334,40	0,373
334,66	0,372
334,93	0,369
335,19	0,368
335,46	0,366
335,73	0,364
335,99	0,363
336,26	0,361
336,52	0,360
336,79	0,359
337,05	0,357
337,32	0,355
337,59	0,354
337,85	0,353
338,12	0,352
338,38	0,352
338,65	0,352
338,91	0,352
339,18	0,351
339,45	0,351
339,71	0,350
339,98	0,349
340,24	0,348
340,51	0,347
340,77	0,347
341,04	0,347
341,31	0,346
341,57	0,346
341,84	0,345
342,10	0,344
342,37	0,345
342,63	0,343
342,90	0,342
343,17	0,341
343,43	0,340
343,70	0,340
343,96	0,341
344,23	0,338
344,49	0,338
344,76	0,338
345,02	0,338
345,29	0,338
345,56	0,337
345,82	0,335
346,09	0,335
346,35	0,335
346,62	0,334
346,88	0,332
347,15	0,330
347,41	0,330
347,68	0,329
347,94	0,329
348,21	0,328
348,48	0,329
348,74	0,330
349,01	0,331
349,27	0,330
349,54	0,330
349,80	0,330
350,07	0,329
350,33	0,328
350,60	0,326
350,86	0,325
351,13	0,325
351,39	0,325
351,66	0,325
351,93	0,324
352,19	0,324
352,46	0,325
352,72	0,325
352,99	0,323
353,25	0,322
353,52	0,320
353,78	0,319
354,05	0,319
354,31	0,319
354,58	0,319
354,84	0,319
355,11	0,320
355,37	0,320
355,64	0,320
355,90	0,320
356,17	0,319
356,43	0,318
356,70	0,319
356,97	0,318
357,23	0,318
357,50	0,317
357,76	0,317
358,03	0,317
358,29	0,317
358,56	0,317
358,82	0,316
359,09	0,316
359,35	0,316
359,62	0,317
359,88	0,315
360,15	0,315
360,41	0,315
360,68	0,315
360,94	0,315
361,21	0,315
361,47	0,315
361,74	0,314
362,00	0,314
362,27	0,313
362,53	0,313
362,80	0,312
363,06	0,312
363,33	0,312
363,59	0,312
363,86	0,312
364,12	0,312
364,39	0,312
364,65	0,313
364,92	0,313
365,18	0,313
365,45	0,313
365,71	0,314
365,98	0,314
366,24	0,314
366,51	0,313
366,77	0,312
367,04	0,312
367,30	0,313
367,57	0,313
367,83	0,313
368,10	0,313
368,36	0,314
368,63	0,313
368,89	0,312
369,15	0,311
369,42	0,311
369,68	0,310
369,95	0,308
370,21	0,308
370,48	0,308
370,74	0,309
371,01	0,310
371,27	0,309
371,54	0,309
371,80	0,310
372,07	0,310
372,33	0,310
372,60	0,309
372,86	0,309
373,13	0,309
373,39	0,310
373,66	0,310
373,92	0,310
374,18	0,310
374,45	0,310
374,71	0,311
374,98	0,311
375,24	0,311
375,51	0,311
375,77	0,312
376,04	0,312
376,30	0,312
376,57	0,310
376,83	0,309
377,10	0,310
377,36	0,310
377,62	0,310
377,89	0,310
378,15	0,311
378,42	0,311
378,68	0,312
378,95	0,311
379,21	0,312
379,48	0,311
379,74	0,311
380,00	0,312
380,27	0,312
380,53	0,312
380,80	0,312
381,06	0,311
381,33	0,311
381,59	0,311
381,86	0,310
382,12	0,308
382,38	0,308
382,65	0,309
382,91	0,309
383,18	0,309
383,44	0,308
383,71	0,307
383,97	0,309
384,24	0,308
384,50	0,308
384,76	0,307
385,03	0,308
385,29	0,308
385,56	0,308
385,82	0,307
386,09	0,307
386,35	0,307
386,61	0,307
386,88	0,307
387,14	0,307
387,41	0,308
387,67	0,309
387,94	0,310
388,20	0,310
388,46	0,309
388,73	0,308
388,99	0,309
389,26	0,308
389,52	0,306
389,78	0,305
390,05	0,304
390,31	0,305
390,58	0,305
390,84	0,305
391,11	0,305
391,37	0,306
391,63	0,306
391,90	0,307
392,16	0,308
392,43	0,308
392,69	0,309
392,95	0,310
393,22	0,310
393,48	0,310
393,75	0,311
394,01	0,310
394,27	0,309
394,54	0,308
394,80	0,307
395,07	0,307
395,33	0,307
395,59	0,307
395,86	0,307
396,12	0,308
396,39	0,309
396,65	0,308
396,91	0,308
397,18	0,308
397,44	0,308
397,71	0,308
397,97	0,307
398,23	0,306
398,50	0,308
398,76	0,307
399,03	0,307
399,29	0,306
399,55	0,307
399,82	0,308
400,08	0,308
400,34	0,306
400,61	0,308
400,87	0,309
401,14	0,309
401,40	0,308
401,66	0,308
401,93	0,308
402,19	0,308
402,46	0,307
402,72	0,306
402,98	0,306
403,25	0,306
403,51	0,306
403,77	0,305
404,04	0,305
404,30	0,305
404,57	0,306
404,83	0,306
405,09	0,307
405,36	0,307
405,62	0,308
405,88	0,308
406,15	0,308
406,41	0,308
406,67	0,307
406,94	0,307
407,20	0,307
407,47	0,307
407,73	0,306
407,99	0,306
408,26	0,305
408,52	0,305
408,78	0,306
409,05	0,306
409,31	0,306
409,57	0,307
409,84	0,307
410,10	0,307
410,37	0,307
410,63	0,306
410,89	0,307
411,16	0,307
411,42	0,307
411,68	0,307
411,95	0,307
412,21	0,308
412,47	0,307
412,74	0,306
413,00	0,305
413,26	0,305
413,53	0,306
413,79	0,306
414,05	0,306
414,32	0,307
414,58	0,308
414,84	0,310
415,11	0,310
415,37	0,310
415,63	0,308
415,90	0,309
416,16	0,310
416,42	0,308
416,69	0,307
416,95	0,307
417,21	0,307
417,48	0,308
417,74	0,308
418,00	0,307
418,27	0,308
418,53	0,308
418,79	0,308
419,06	0,308
419,32	0,307
419,58	0,307
419,85	0,307
420,11	0,307
420,37	0,307
420,64	0,307
420,90	0,308
421,16	0,309
421,43	0,309
421,69	0,310
421,95	0,310
422,22	0,310
422,48	0,310
422,74	0,310
423,01	0,311
423,27	0,310
423,53	0,310
423,79	0,309
424,06	0,309
424,32	0,309
424,58	0,308
424,85	0,307
425,11	0,306
425,37	0,306
425,64	0,306
425,90	0,306
426,16	0,306
426,43	0,307
426,69	0,308
426,95	0,309
427,21	0,310
427,48	0,310
427,74	0,311
428,00	0,311
428,27	0,310
428,53	0,311
428,79	0,311
429,06	0,310
429,32	0,309
429,58	0,309
429,84	0,309
430,11	0,308
430,37	0,307
430,63	0,306
430,90	0,307
431,16	0,308
431,42	0,307
431,68	0,307
431,95	0,307
432,21	0,306
432,47	0,307
432,74	0,306
433,00	0,305
433,26	0,305
433,52	0,303
433,79	0,303
434,05	0,303
434,31	0,302
434,58	0,302
434,84	0,303
435,10	0,303
435,36	0,304
435,63	0,304
435,89	0,304
436,15	0,304
436,41	0,305
436,68	0,305
436,94	0,306
437,20	0,307
437,47	0,307
437,73	0,307
437,99	0,306
438,25	0,306
438,52	0,305
438,78	0,304
439,04	0,304
439,30	0,305
439,57	0,306
439,83	0,306
440,09	0,306
440,35	0,305
440,62	0,306
440,88	0,306
441,14	0,306
441,41	0,306
441,67	0,306
441,93	0,306
442,19	0,306
442,46	0,306
442,72	0,306
442,98	0,305
443,24	0,304
443,51	0,303
443,77	0,304
444,03	0,304
444,29	0,304
444,56	0,304
444,82	0,304
445,08	0,304
445,34	0,305
445,61	0,306
445,87	0,306
446,13	0,306
446,39	0,306
446,65	0,306
446,92	0,306
447,18	0,305
447,44	0,305
447,70	0,305
447,97	0,306
448,23	0,306
448,49	0,306
448,75	0,306
449,02	0,305
449,28	0,304
449,54	0,303
449,80	0,302
450,07	0,301
450,33	0,301
450,59	0,301
450,85	0,302
451,11	0,302
451,38	0,302
451,64	0,303
451,90	0,303
452,16	0,303
452,43	0,303
452,69	0,302
452,95	0,302
453,21	0,303
453,47	0,302
453,74	0,303
454,00	0,304
454,26	0,303
454,52	0,304
454,79	0,305
455,05	0,304
455,31	0,303
455,57	0,303
455,83	0,304
456,10	0,303
456,36	0,303
456,62	0,303
456,88	0,303
457,14	0,303
457,41	0,303
457,67	0,303
457,93	0,303
458,19	0,303
458,45	0,303
458,72	0,302
458,98	0,302
459,24	0,302
459,50	0,301
459,76	0,301
460,03	0,300
460,29	0,300
460,55	0,301
460,81	0,301
461,07	0,301
461,34	0,300
461,60	0,301
461,86	0,301
462,12	0,301
462,38	0,301
462,65	0,301
462,91	0,302
463,17	0,303
463,43	0,304
463,69	0,305
463,96	0,305
464,22	0,304
464,48	0,303
464,74	0,303
465,00	0,302
465,26	0,301
465,53	0,301
465,79	0,302
466,05	0,301
466,31	0,301
466,57	0,301
466,84	0,300
467,10	0,301
467,36	0,300
467,62	0,299
467,88	0,300
468,14	0,300
468,41	0,299
468,67	0,300
468,93	0,300
469,19	0,300
469,45	0,300
469,71	0,300
469,98	0,300
470,24	0,300
470,50	0,300
470,76	0,300
471,02	0,300
471,28	0,300
471,55	0,301
471,81	0,300
472,07	0,301
472,33	0,301
472,59	0,300
472,85	0,300
473,12	0,300
473,38	0,300
473,64	0,300
473,90	0,299
474,16	0,299
474,42	0,299
474,68	0,299
474,95	0,299
475,21	0,299
475,47	0,299
475,73	0,299
475,99	0,298
476,25	0,298
476,52	0,298
476,78	0,298
477,04	0,298
477,30	0,298
477,56	0,298
477,82	0,298
478,08	0,298
478,35	0,298
478,61	0,298
478,87	0,297
479,13	0,297
479,39	0,298
479,65	0,298
479,91	0,298
480,17	0,298
480,44	0,298
480,70	0,297
480,96	0,297
481,22	0,297
481,48	0,296
481,74	0,296
482,00	0,296
482,27	0,296
482,53	0,296
482,79	0,296
483,05	0,297
483,31	0,297
483,57	0,297
483,83	0,297
484,09	0,297
484,36	0,297
484,62	0,296
484,88	0,296
485,14	0,296
485,40	0,296
485,66	0,295
485,92	0,295
486,18	0,295
486,44	0,295
486,71	0,295
486,97	0,294
487,23	0,294
487,49	0,294
487,75	0,294
488,01	0,294
488,27	0,294
488,53	0,294
488,79	0,294
489,06	0,294
489,32	0,293
489,58	0,293
489,84	0,293
490,10	0,293
490,36	0,293
490,62	0,293
490,88	0,293
491,14	0,293
491,40	0,294
491,67	0,293
491,93	0,293
492,19	0,294
492,45	0,294
492,71	0,295
492,97	0,295
493,23	0,295
493,49	0,295
493,75	0,295
494,01	0,295
494,28	0,295
494,54	0,295
494,80	0,295
495,06	0,294
495,32	0,294
495,58	0,295
495,84	0,294
496,10	0,295
496,36	0,295
496,62	0,295
496,88	0,296
497,14	0,296
497,41	0,295
497,67	0,295
497,93	0,295
498,19	0,295
498,45	0,295
498,71	0,295
498,97	0,294
499,23	0,294
499,49	0,295
499,75	0,295
500,01	0,295
500,27	0,294
500,53	0,294
500,80	0,294
501,06	0,294
501,32	0,294
501,58	0,294
501,84	0,294
502,10	0,294
502,36	0,293
502,62	0,293
502,88	0,294
503,14	0,294
503,40	0,294
503,66	0,293
503,92	0,293
504,18	0,293
504,44	0,292
504,70	0,292
504,97	0,291
505,23	0,291
505,49	0,292
505,75	0,292
506,01	0,292
506,27	0,292
506,53	0,292
506,79	0,292
507,05	0,292
507,31	0,292
507,57	0,291
507,83	0,292
508,09	0,292
508,35	0,292
508,61	0,292
508,87	0,292
509,13	0,292
509,39	0,292
509,65	0,291
509,91	0,291
510,17	0,291
510,43	0,291
510,70	0,291
510,96	0,291
511,22	0,291
511,48	0,291
511,74	0,291
512,00	0,291
512,26	0,291
512,52	0,291
512,78	0,291
513,04	0,290
513,30	0,290
513,56	0,291
513,82	0,290
514,08	0,290
514,34	0,290
514,60	0,290
514,86	0,290
515,12	0,290
515,38	0,290
515,64	0,290
515,90	0,290
516,16	0,290
516,42	0,290
516,68	0,290
516,94	0,291
517,20	0,291
517,46	0,290
517,72	0,290
517,98	0,290
518,24	0,290
518,50	0,291
518,76	0,290
519,02	0,291
519,28	0,291
519,54	0,291
519,80	0,290
520,06	0,290
520,32	0,289
520,58	0,289
520,84	0,289
521,10	0,289
521,36	0,288
521,62	0,288
521,88	0,287
522,14	0,288
522,40	0,287
522,66	0,287
522,92	0,287
523,18	0,288
523,44	0,288
523,70	0,289
523,96	0,289
524,22	0,289
524,48	0,289
524,74	0,289
525,00	0,290
525,26	0,289
525,52	0,289
525,78	0,289
526,04	0,288
526,30	0,288
526,56	0,287
526,82	0,287
527,08	0,286
527,34	0,286
527,60	0,286
527,86	0,286
528,12	0,286
528,38	0,286
528,64	0,286
528,90	0,287
529,16	0,286
529,42	0,286
529,68	0,286
529,94	0,287
530,20	0,287
530,46	0,286
530,72	0,286
530,98	0,286
531,24	0,286
531,50	0,285
531,76	0,285
532,02	0,285
532,28	0,285
532,54	0,285
532,80	0,285
533,06	0,285
533,32	0,285
533,58	0,285
533,84	0,286
534,10	0,285
534,35	0,285
534,61	0,286
534,87	0,286
535,13	0,286
535,39	0,286
535,65	0,285
535,91	0,286
536,17	0,285
536,43	0,285
536,69	0,284
536,95	0,284
537,21	0,284
537,47	0,284
537,73	0,284
537,99	0,284
538,25	0,284
538,51	0,284
538,77	0,284
539,03	0,283
539,29	0,284
539,55	0,284
539,80	0,283
540,06	0,283
540,32	0,283
540,58	0,283
540,84	0,282
541,10	0,282
541,36	0,282
541,62	0,282
541,88	0,282
542,14	0,282
542,40	0,282
542,66	0,282
542,92	0,281
543,18	0,281
543,44	0,281
543,70	0,281
543,95	0,281
544,21	0,281
544,47	0,281
544,73	0,281
544,99	0,281
545,25	0,282
545,51	0,282
545,77	0,282
546,03	0,282
546,29	0,282
546,55	0,282
546,81	0,282
547,07	0,283
547,32	0,282
547,58	0,282
547,84	0,282
548,10	0,282
548,36	0,282
548,62	0,281
548,88	0,281
549,14	0,281
549,40	0,281
549,66	0,280
549,92	0,279
550,18	0,280
550,43	0,279
550,69	0,279
550,95	0,279
551,21	0,279
551,47	0,279
551,73	0,279
551,99	0,279
552,25	0,280
552,51	0,280
552,77	0,281
553,03	0,280
553,28	0,280
553,54	0,280
553,80	0,280
554,06	0,280
554,32	0,280
554,58	0,280
554,84	0,280
555,10	0,281
555,36	0,281
555,61	0,280
555,87	0,280
556,13	0,279
556,39	0,279
556,65	0,279
556,91	0,278
557,17	0,278
557,43	0,277
557,69	0,277
557,94	0,277
558,20	0,276
558,46	0,276
558,72	0,276
558,98	0,277
559,24	0,278
559,50	0,278
559,76	0,278
560,02	0,278
560,27	0,279
560,53	0,279
560,79	0,279
561,05	0,278
561,31	0,278
561,57	0,278
561,83	0,278
562,09	0,278
562,34	0,277
562,60	0,277
562,86	0,277
563,12	0,276
563,38	0,276
563,64	0,276
563,90	0,275
564,15	0,276
564,41	0,275
564,67	0,275
564,93	0,275
565,19	0,275
565,45	0,275
565,71	0,275
565,97	0,275
566,22	0,274
566,48	0,274
566,74	0,274
567,00	0,274
567,26	0,274
567,52	0,274
567,78	0,274
568,03	0,274
568,29	0,274
568,55	0,274
568,81	0,275
569,07	0,275
569,33	0,274
569,58	0,274
569,84	0,274
570,10	0,275
570,36	0,275
570,62	0,274
570,88	0,273
571,14	0,273
571,39	0,272
571,65	0,272
571,91	0,272
572,17	0,272
572,43	0,272
572,69	0,273
572,94	0,273
573,20	0,273
573,46	0,273
573,72	0,272
573,98	0,272
574,24	0,272
574,49	0,272
574,75	0,272
575,01	0,272
575,27	0,272
575,53	0,272
575,79	0,272
576,04	0,272
576,30	0,273
576,56	0,272
576,82	0,271
577,08	0,271
577,33	0,271
577,59	0,270
577,85	0,270
578,11	0,270
578,37	0,270
578,63	0,270
578,88	0,270
579,14	0,270
579,40	0,270
579,66	0,270
579,92	0,269
580,17	0,270
580,43	0,269
580,69	0,269
580,95	0,269
581,21	0,269
581,47	0,269
581,72	0,269
581,98	0,269
582,24	0,268
582,50	0,268
582,76	0,268
583,01	0,268
583,27	0,268
583,53	0,268
583,79	0,268
584,05	0,268
584,30	0,268
584,56	0,268
584,82	0,268
585,08	0,267
585,34	0,267
585,59	0,267
585,85	0,267
586,11	0,267
586,37	0,267
586,63	0,267
586,88	0,267
587,14	0,267
587,40	0,266
587,66	0,266
587,91	0,266
588,17	0,266
588,43	0,266
588,69	0,266
588,95	0,266
589,20	0,266
589,46	0,266
589,72	0,266
589,98	0,266
590,24	0,267
590,49	0,267
590,75	0,267
591,01	0,268
591,27	0,268
591,52	0,267
591,78	0,267
592,04	0,267
592,30	0,266
592,55	0,267
592,81	0,267
593,07	0,267
593,33	0,267
593,59	0,266
593,84	0,266
594,10	0,266
594,36	0,265
594,62	0,265
594,87	0,265
595,13	0,265
595,39	0,265
595,65	0,264
595,90	0,265
596,16	0,264
596,42	0,263
596,68	0,263
596,93	0,263
597,19	0,264
597,45	0,264
597,71	0,264
597,97	0,264
598,22	0,265
598,48	0,265
598,74	0,265
599,00	0,265
599,25	0,264
599,51	0,265
599,77	0,265
600,03	0,264
600,28	0,264
600,54	0,263
600,80	0,263
601,05	0,263
601,31	0,262
601,57	0,262
601,83	0,262
602,08	0,263
602,34	0,263
602,60	0,263
602,86	0,263
603,11	0,264
603,37	0,264
603,63	0,264
603,89	0,263
604,14	0,263
604,40	0,262
604,66	0,262
604,92	0,261
605,17	0,262
605,43	0,262
605,69	0,262
605,94	0,262
606,20	0,262
606,46	0,262
606,72	0,262
606,97	0,261
607,23	0,261
607,49	0,261
607,75	0,260
608,00	0,260
608,26	0,260
608,52	0,260
608,77	0,260
609,03	0,260
609,29	0,260
609,55	0,260
609,80	0,260
610,06	0,260
610,32	0,260
610,57	0,259
610,83	0,259
611,09	0,259
611,35	0,259
611,60	0,259
611,86	0,259
612,12	0,259
612,37	0,259
612,63	0,260
612,89	0,260
613,15	0,261
613,40	0,262
613,66	0,261
613,92	0,261
614,17	0,260
614,43	0,260
614,69	0,260
614,94	0,259
615,20	0,259
615,46	0,259
615,72	0,260
615,97	0,260
616,23	0,259
616,49	0,259
616,74	0,259
617,00	0,258
617,26	0,258
617,51	0,258
617,77	0,258
618,03	0,258
618,28	0,258
618,54	0,258
618,80	0,258
619,05	0,258
619,31	0,259
619,57	0,258
619,83	0,258
620,08	0,258
620,34	0,258
620,60	0,258
620,85	0,258
621,11	0,257
621,37	0,257
621,62	0,257
621,88	0,257
622,14	0,258
622,39	0,258
622,65	0,257
622,91	0,258
623,16	0,257
623,42	0,257
623,68	0,257
623,93	0,256
624,19	0,256
624,45	0,257
624,70	0,256
624,96	0,256
625,22	0,256
625,47	0,256
625,73	0,256
625,99	0,256
626,24	0,256
626,50	0,256
626,76	0,257
627,01	0,256
627,27	0,256
627,53	0,256
627,78	0,256
628,04	0,256
628,30	0,256
628,55	0,256
628,81	0,256
629,07	0,256
629,32	0,256
629,58	0,256
629,83	0,255
630,09	0,255
630,35	0,255
630,60	0,256
630,86	0,256
631,12	0,255
631,37	0,255
631,63	0,255
631,89	0,256
632,14	0,255
632,40	0,255
632,66	0,255
632,91	0,255
633,17	0,255
633,42	0,255
633,68	0,255
633,94	0,255
634,19	0,255
634,45	0,255
634,71	0,255
634,96	0,255
635,22	0,255
635,48	0,255
635,73	0,255
635,99	0,255
636,24	0,255
636,50	0,255
636,76	0,255
637,01	0,254
637,27	0,255
637,53	0,255
637,78	0,254
638,04	0,254
638,29	0,254
638,55	0,254
638,81	0,254
639,06	0,254
639,32	0,253
639,57	0,254
639,83	0,254
640,09	0,253
640,34	0,253
640,60	0,253
640,86	0,254
641,11	0,254
641,37	0,254
641,62	0,254
641,88	0,254
642,14	0,254
642,39	0,254
642,65	0,253
642,90	0,253
643,16	0,253
643,42	0,253
643,67	0,253
643,93	0,252
644,18	0,252
644,44	0,252
644,70	0,252
644,95	0,252
645,21	0,252
645,46	0,252
645,72	0,253
645,98	0,253
646,23	0,253
646,49	0,253
646,74	0,253
647,00	0,253
647,26	0,253
647,51	0,253
647,77	0,253
648,02	0,253
648,28	0,252
648,54	0,253
648,79	0,253
649,05	0,253
649,30	0,253
649,56	0,253
649,81	0,253
650,07	0,253
650,33	0,253
650,58	0,253
650,84	0,252
651,09	0,252
651,35	0,252
651,60	0,253
651,86	0,252
652,12	0,252
652,37	0,253
652,63	0,252
652,88	0,252
653,14	0,252
653,39	0,253
653,65	0,253
653,91	0,252
654,16	0,252
654,42	0,252
654,67	0,252
654,93	0,252
655,18	0,252
655,44	0,252
655,70	0,252
655,95	0,252
656,21	0,252
656,46	0,252
656,72	0,252
656,97	0,252
657,23	0,252
657,49	0,252
657,74	0,252
658,00	0,252
658,25	0,252
658,51	0,251
658,76	0,251
659,02	0,251
659,27	0,251
659,53	0,252
659,78	0,252
660,04	0,252
660,30	0,252
660,55	0,252
660,81	0,252
661,06	0,251
661,32	0,251
661,57	0,251
661,83	0,250
662,08	0,250
662,34	0,251
662,59	0,251
662,85	0,251
663,11	0,251
663,36	0,252
663,62	0,252
663,87	0,252
664,13	0,251
664,38	0,252
664,64	0,251
664,89	0,251
665,15	0,251
665,40	0,251
665,66	0,252
665,91	0,252
666,17	0,252
666,42	0,252
666,68	0,252
666,93	0,253
667,19	0,252
667,45	0,252
667,70	0,252
667,96	0,251
668,21	0,251
668,47	0,251
668,72	0,251
668,98	0,251
669,23	0,251
669,49	0,251
669,74	0,251
670,00	0,251
670,25	0,251
670,51	0,251
670,76	0,251
671,02	0,250
671,27	0,250
671,53	0,250
671,78	0,250
672,04	0,250
672,29	0,249
672,55	0,249
672,80	0,250
673,06	0,250
673,31	0,250
673,57	0,250
673,82	0,250
674,08	0,251
674,33	0,251
674,59	0,250
674,84	0,251
675,10	0,250
675,35	0,250
675,61	0,250
675,86	0,250
676,12	0,250
676,37	0,250
676,63	0,249
676,88	0,250
677,14	0,251
677,39	0,251
677,65	0,251
677,90	0,251
678,16	0,251
678,41	0,251
678,67	0,251
678,92	0,251
679,18	0,251
679,43	0,251
679,69	0,251
679,94	0,251
680,20	0,251
680,45	0,251
680,71	0,251
680,96	0,250
681,21	0,250
681,47	0,250
681,72	0,250
681,98	0,249
682,23	0,250
682,49	0,250
682,74	0,250
683,00	0,250
683,25	0,250
683,51	0,250
683,76	0,250
684,02	0,250
684,27	0,250
684,53	0,250
684,78	0,250
685,04	0,250
685,29	0,250
685,54	0,250
685,80	0,251
686,05	0,251
686,31	0,250
686,56	0,250
686,82	0,250
687,07	0,250
687,33	0,250
687,58	0,250
687,84	0,249
688,09	0,249
688,34	0,249
688,60	0,249
688,85	0,249
689,11	0,249
689,36	0,248
689,62	0,248
689,87	0,248
690,13	0,248
690,38	0,249
690,64	0,249
690,89	0,249
691,14	0,250
691,40	0,250
691,65	0,250
691,91	0,250
692,16	0,249
692,42	0,250
692,67	0,249
692,92	0,249
693,18	0,249
693,43	0,250
693,69	0,250
693,94	0,250
694,20	0,250
694,45	0,250
694,71	0,250
694,96	0,250
695,21	0,249
695,47	0,249
695,72	0,249
695,98	0,250
696,23	0,250
696,48	0,250
696,74	0,249
696,99	0,249
697,25	0,250
697,50	0,249
697,76	0,249
698,01	0,249
698,26	0,249
698,52	0,249
698,77	0,250
699,03	0,250
699,28	0,250
699,54	0,251
699,79	0,250
700,04	0,251
700,30	0,251
700,55	0,251
700,81	0,251
701,06	0,250
701,31	0,250
701,57	0,250
701,82	0,250
702,08	0,250
702,33	0,250
702,58	0,250
702,84	0,250
703,09	0,250
703,35	0,250
703,60	0,250
703,85	0,250
704,11	0,250
704,36	0,250
704,62	0,250
704,87	0,251
705,12	0,250
705,38	0,251
705,63	0,251
705,89	0,250
706,14	0,250
706,39	0,251
706,65	0,250
706,90	0,250
707,16	0,250
707,41	0,250
707,66	0,250
707,92	0,251
708,17	0,250
708,42	0,251
708,68	0,251
708,93	0,251
709,19	0,251
709,44	0,252
709,69	0,251
709,95	0,252
710,20	0,252
710,46	0,252
710,71	0,252
710,96	0,252
711,22	0,251
711,47	0,251
711,72	0,251
711,98	0,252
712,23	0,251
712,48	0,252
712,74	0,251
712,99	0,251
713,25	0,251
713,50	0,251
713,75	0,251
714,01	0,252
714,26	0,252
714,51	0,252
714,77	0,252
715,02	0,252
715,28	0,252
715,53	0,253
715,78	0,253
716,04	0,252
716,29	0,252
716,54	0,252
716,80	0,252
717,05	0,252
717,30	0,252
717,56	0,252
717,81	0,252
718,06	0,252
718,32	0,252
718,57	0,252
718,82	0,253
719,08	0,253
719,33	0,253
719,58	0,253
719,84	0,254
720,09	0,254
720,35	0,254
720,60	0,254
720,85	0,254
721,11	0,254
721,36	0,254
721,61	0,254
721,87	0,255
722,12	0,254
722,37	0,254
722,63	0,254
722,88	0,254
723,13	0,254
723,39	0,254
723,64	0,254
723,89	0,255
724,15	0,255
724,40	0,255
724,65	0,255
724,91	0,255
725,16	0,255
725,41	0,255
725,67	0,254
725,92	0,254
726,17	0,254
726,42	0,255
726,68	0,255
726,93	0,255
727,18	0,256
727,44	0,256
727,69	0,255
727,94	0,256
728,20	0,256
728,45	0,256
728,70	0,256
728,96	0,256
729,21	0,256
729,46	0,257
729,72	0,257
729,97	0,256
730,22	0,257
730,48	0,257
730,73	0,257
730,98	0,257
731,23	0,257
731,49	0,258
731,74	0,257
731,99	0,257
732,25	0,257
732,50	0,257
732,75	0,257
733,01	0,257
733,26	0,257
733,51	0,258
733,76	0,258
734,02	0,258
734,27	0,258
734,52	0,258
734,78	0,258
735,03	0,258
735,28	0,258
735,54	0,258
735,79	0,258
736,04	0,259
736,29	0,259
736,55	0,259
736,80	0,259
737,05	0,259
737,31	0,259
737,56	0,259
737,81	0,258
738,06	0,258
738,32	0,259
738,57	0,259
738,82	0,259
739,07	0,258
739,33	0,258
739,58	0,258
739,83	0,258
740,09	0,258
740,34	0,258
740,59	0,258
740,84	0,259
741,10	0,258
741,35	0,258
741,60	0,258
741,86	0,258
742,11	0,258
742,36	0,258
742,61	0,258
742,87	0,258
743,12	0,259
743,37	0,259
743,62	0,259
743,88	0,259
744,13	0,259
744,38	0,259
744,63	0,259
744,89	0,259
745,14	0,259
745,39	0,259
745,64	0,259
745,90	0,258
746,15	0,258
746,40	0,258
746,65	0,258
746,91	0,258
747,16	0,258
747,41	0,258
747,66	0,258
747,92	0,258
748,17	0,258
748,42	0,258
748,67	0,258
748,93	0,257
749,18	0,257
749,43	0,257
749,68	0,257
749,94	0,257
750,19	0,257
750,44	0,257
750,69	0,257
750,95	0,258
751,20	0,258
751,45	0,259
751,70	0,258
751,96	0,258
752,21	0,259
752,46	0,258
752,71	0,258
752,96	0,258
753,22	0,258
753,47	0,258
753,72	0,258
753,97	0,257
754,23	0,257
754,48	0,257
754,73	0,257
754,98	0,257
755,24	0,258
755,49	0,258
755,74	0,258
755,99	0,258
756,24	0,258
756,50	0,258
756,75	0,258
757,00	0,257
757,25	0,257
757,50	0,258
757,76	0,259
758,01	0,259
758,26	0,259
758,51	0,258
758,77	0,258
759,02	0,258
759,27	0,257
759,52	0,256
759,77	0,257
760,03	0,257
760,28	0,257
760,53	0,257
760,78	0,257
761,03	0,258
761,29	0,258
761,54	0,258
761,79	0,258
762,04	0,258
762,29	0,258
762,55	0,258
762,80	0,258
763,05	0,258
763,30	0,258
763,55	0,258
763,81	0,257
764,06	0,257
764,31	0,256
764,56	0,256
764,81	0,256
765,07	0,256
765,32	0,256
765,57	0,255
765,82	0,255
766,07	0,255
766,32	0,256
766,58	0,256
766,83	0,256
767,08	0,256
767,33	0,256
767,58	0,256
767,84	0,256
768,09	0,256
768,34	0,256
768,59	0,256
768,84	0,256
769,09	0,256
769,35	0,256
769,60	0,256
769,85	0,255
770,10	0,255
770,35	0,255
770,60	0,255
770,86	0,255
771,11	0,255
771,36	0,255
771,61	0,256
771,86	0,255
772,11	0,255
772,37	0,255
772,62	0,255
772,87	0,255
773,12	0,255
773,37	0,255
773,62	0,255
773,88	0,255
774,13	0,255
774,38	0,255
774,63	0,254
774,88	0,254
775,13	0,254
775,38	0,254
775,64	0,254
775,89	0,254
776,14	0,254
776,39	0,254
776,64	0,254
776,89	0,253
777,15	0,253
777,40	0,253
777,65	0,253
777,90	0,253
778,15	0,253
778,40	0,253
778,65	0,253
778,91	0,253
779,16	0,253
779,41	0,253
779,66	0,253
779,91	0,254
780,16	0,254
780,41	0,254
780,66	0,254
780,92	0,254
781,17	0,254
781,42	0,253
781,67	0,253
781,92	0,253
782,17	0,253
782,42	0,252
782,68	0,253
782,93	0,253
783,18	0,253
783,43	0,253
783,68	0,252
783,93	0,251
784,18	0,251
784,43	0,251
784,69	0,250
784,94	0,250
785,19	0,250
785,44	0,251
785,69	0,252
785,94	0,252
786,19	0,252
786,44	0,252
786,69	0,252
786,95	0,252
787,20	0,252
787,45	0,251
787,70	0,251
787,95	0,251
788,20	0,251
788,45	0,251
788,70	0,250
788,95	0,250
789,21	0,250
789,46	0,250
789,71	0,250
789,96	0,250
790,21	0,250
790,46	0,250
790,71	0,250
790,96	0,250
791,21	0,249
791,46	0,249
791,72	0,249
791,97	0,249
792,22	0,249
792,47	0,249
792,72	0,249
792,97	0,250
793,22	0,249
793,47	0,249
793,72	0,249
793,97	0,248
794,22	0,248
794,47	0,248
794,73	0,248
794,98	0,248
795,23	0,248
795,48	0,248
795,73	0,248
795,98	0,248
796,23	0,248
796,48	0,247
796,73	0,247
796,98	0,247
797,23	0,247
797,48	0,247
797,74	0,248
797,99	0,247
798,24	0,248
798,49	0,248
798,74	0,248
798,99	0,248
799,24	0,248
799,49	0,247
799,74	0,247
799,99	0,246
800,24	0,246
800,49	0,245
800,74	0,245
800,99	0,245
801,24	0,245
801,50	0,245
801,75	0,245
802,00	0,246
802,25	0,246
802,50	0,246
802,75	0,245
803,00	0,245
803,25	0,245
803,50	0,245
803,75	0,245
804,00	0,245
804,25	0,245
804,50	0,245
804,75	0,245
805,00	0,245
805,25	0,245
805,50	0,244
805,75	0,244
806,00	0,244
806,26	0,244
806,51	0,244
806,76	0,245
807,01	0,244
807,26	0,245
807,51	0,244
807,76	0,244
808,01	0,244
808,26	0,244
808,51	0,243
808,76	0,243
809,01	0,243
809,26	0,243
809,51	0,242
809,76	0,243
810,01	0,243
810,26	0,243
810,51	0,243
810,76	0,243
811,01	0,243
811,26	0,243
811,51	0,242
811,76	0,242
812,01	0,242
812,26	0,241
812,51	0,242
812,76	0,242
813,01	0,242
813,26	0,242
813,51	0,242
813,76	0,242
814,01	0,242
814,26	0,242
814,51	0,242
814,76	0,242
815,02	0,242
815,27	0,243
815,52	0,242
815,77	0,241
816,02	0,242
816,27	0,241
816,52	0,241
816,77	0,241
817,02	0,241
817,27	0,241
817,52	0,241
817,77	0,241
818,02	0,241
818,27	0,241
818,52	0,241
818,77	0,241
819,02	0,241
819,27	0,241
819,52	0,242
819,77	0,241
820,02	0,241
820,27	0,241
820,52	0,241
820,77	0,240
821,02	0,240
821,27	0,240
821,52	0,241
821,77	0,241
822,02	0,240
822,26	0,240
822,51	0,240
822,76	0,241
823,01	0,240
823,26	0,240
823,51	0,240
823,76	0,240
824,01	0,241
824,26	0,241
824,51	0,241
824,76	0,241
825,01	0,242
825,26	0,242
825,51	0,242
825,76	0,242
826,01	0,241
826,26	0,241
826,51	0,241
826,76	0,240
827,01	0,240
827,26	0,240
827,51	0,241
827,76	0,241
828,01	0,242
828,26	0,241
828,51	0,242
828,76	0,242
829,01	0,242
829,26	0,242
829,51	0,242
829,76	0,242
830,01	0,242
830,26	0,241
830,51	0,242
830,76	0,242
831,00	0,242
831,25	0,242
831,50	0,243
831,75	0,243
832,00	0,244
832,25	0,243
832,50	0,242
832,75	0,242
833,00	0,242
833,25	0,241
833,50	0,240
833,75	0,240
834,00	0,241
834,25	0,241
834,50	0,241
834,75	0,241
835,00	0,241
835,25	0,241
835,50	0,241
835,74	0,241
835,99	0,241
836,24	0,240
836,49	0,240
836,74	0,240
836,99	0,240
837,24	0,240
837,49	0,240
837,74	0,240
837,99	0,240
838,24	0,241
838,49	0,241
838,74	0,241
838,99	0,241
839,24	0,241
839,48	0,242
839,73	0,241
839,98	0,241
840,23	0,241
840,48	0,241
840,73	0,240
840,98	0,240
841,23	0,239
841,48	0,239
841,73	0,240
841,98	0,240
842,23	0,241
842,48	0,241
842,72	0,241
842,97	0,241
843,22	0,242
843,47	0,242
843,72	0,241
843,97	0,241
844,22	0,241
844,47	0,241
844,72	0,241
844,97	0,240
845,22	0,240
845,46	0,240
845,71	0,240
845,96	0,240
846,21	0,240
846,46	0,240
846,71	0,240
846,96	0,240
847,21	0,240
847,46	0,240
847,71	0,240
847,95	0,240
848,20	0,240
848,45	0,240
848,70	0,240
848,95	0,240
849,20	0,239
849,45	0,239
849,70	0,239
849,95	0,239
850,19	0,239
850,44	0,238
850,69	0,238
850,94	0,238
851,19	0,238
851,44	0,238
851,69	0,238
851,94	0,238
852,19	0,239
852,43	0,239
852,68	0,239
852,93	0,239
853,18	0,239
853,43	0,238
853,68	0,238
853,93	0,239
854,18	0,238
854,42	0,238
854,67	0,238
854,92	0,238
855,17	0,238
855,42	0,237
855,67	0,237
855,92	0,237
856,16	0,237
856,41	0,237
856,66	0,237
856,91	0,237
857,16	0,237
857,41	0,236
857,66	0,236
857,91	0,236
858,15	0,236
858,40	0,236
858,65	0,237
858,90	0,237
859,15	0,238
859,40	0,239
859,65	0,239
859,89	0,239
860,14	0,238
860,39	0,238
860,64	0,238
860,89	0,237
861,14	0,237
861,38	0,237
861,63	0,236
861,88	0,236
862,13	0,236
862,38	0,235
862,63	0,236
862,88	0,236
863,12	0,235
863,37	0,236
863,62	0,236
863,87	0,236
864,12	0,236
864,37	0,237
864,61	0,237
864,86	0,237
865,11	0,237
865,36	0,236
865,61	0,237
865,86	0,237
866,10	0,236
866,35	0,236
866,60	0,235
866,85	0,236
867,10	0,236
867,35	0,236
867,59	0,236
867,84	0,236
868,09	0,236
868,34	0,237
868,59	0,236
868,83	0,236
869,08	0,236
869,33	0,236
869,58	0,236
869,83	0,237
870,08	0,236
870,32	0,236
870,57	0,236
870,82	0,236
871,07	0,235
871,32	0,235
871,56	0,235
871,81	0,235
872,06	0,235
872,31	0,234
872,56	0,234
872,81	0,234
873,05	0,234
873,30	0,234
873,55	0,234
873,80	0,234
874,05	0,235
874,29	0,234
874,54	0,234
874,79	0,235
875,04	0,234
875,29	0,234
875,53	0,234
875,78	0,235
876,03	0,235
876,28	0,235
876,52	0,234
876,77	0,234
877,02	0,235
877,27	0,234
877,52	0,234
877,76	0,234
878,01	0,233
878,26	0,234
878,51	0,235
878,76	0,235
879,00	0,235
879,25	0,235
879,50	0,235
879,75	0,235
880,00	0,235
880,24	0,235
880,49	0,235
880,74	0,235
880,99	0,235
881,23	0,236
881,48	0,235
881,73	0,235
881,98	0,234
882,22	0,234
882,47	0,234
882,72	0,234
882,97	0,233
883,22	0,233
883,46	0,234
883,71	0,234
883,96	0,234
884,21	0,233
884,45	0,233
884,70	0,233
884,95	0,233
885,20	0,233
885,44	0,234
885,69	0,234
885,94	0,234
886,19	0,234
886,43	0,234
886,68	0,235
886,93	0,235
887,18	0,235
887,42	0,234
887,67	0,235
887,92	0,235
888,17	0,235
888,42	0,235
888,66	0,234
888,91	0,234
889,16	0,234
889,40	0,234
889,65	0,234
889,90	0,234
890,15	0,234
890,39	0,234
890,64	0,235
890,89	0,234
891,14	0,234
891,38	0,234
891,63	0,234
891,88	0,234
892,13	0,234
892,37	0,233
892,62	0,233
892,87	0,233
893,12	0,233
893,36	0,233
893,61	0,233
893,86	0,233
894,11	0,233
894,35	0,233
894,60	0,233
894,85	0,233
895,09	0,233
895,34	0,234
895,59	0,233
895,84	0,234
896,08	0,233
896,33	0,233
896,58	0,234
896,82	0,234
897,07	0,234
897,32	0,234
897,57	0,234
897,81	0,234
898,06	0,234
898,31	0,234
898,55	0,234
898,80	0,234
899,05	0,233
899,30	0,233
899,54	0,233
899,79	0,232
900,04	0,232
900,28	0,232
900,53	0,232
900,78	0,232
901,03	0,233
901,27	0,233
901,52	0,234
901,77	0,234
902,01	0,234
902,26	0,234
902,51	0,233
902,75	0,233
903,00	0,233
903,25	0,233
903,50	0,234
903,74	0,234
903,99	0,233
904,24	0,233
904,48	0,233
904,73	0,233
904,98	0,232
905,22	0,232
905,47	0,231
905,72	0,232
905,96	0,232
906,21	0,232
906,46	0,232
906,70	0,232
906,95	0,232
907,20	0,233
907,45	0,233
907,69	0,233
907,94	0,233
908,19	0,234
908,43	0,234
908,68	0,234
908,93	0,234
909,17	0,233
909,42	0,233
909,67	0,233
909,91	0,233
910,16	0,233
910,41	0,233
910,65	0,233
910,90	0,234
911,15	0,234
911,39	0,234
911,64	0,234
911,89	0,234
912,13	0,234
912,38	0,234
912,63	0,234
912,87	0,234
913,12	0,234
913,37	0,234
913,61	0,234
913,86	0,234
914,11	0,234
914,35	0,235
914,60	0,235
914,85	0,235
915,09	0,235
915,34	0,235
915,58	0,235
915,83	0,234
916,08	0,234
916,32	0,235
916,57	0,234
916,82	0,234
917,06	0,234
917,31	0,235
917,56	0,235
917,80	0,234
918,05	0,235
918,30	0,235
918,54	0,235
918,79	0,235
919,04	0,236
919,28	0,236
919,53	0,236
919,77	0,236
920,02	0,237
920,27	0,237
920,51	0,237
920,76	0,237
921,01	0,237
921,25	0,238
921,50	0,238
921,74	0,238
921,99	0,239
922,24	0,238
922,48	0,239
922,73	0,239
922,98	0,239
923,22	0,238
923,47	0,238
923,71	0,238
923,96	0,238
924,21	0,238
924,45	0,238
924,70	0,238
924,95	0,239
925,19	0,239
925,44	0,239
925,68	0,240
925,93	0,240
926,18	0,240
926,42	0,241
926,67	0,241
926,91	0,241
927,16	0,242
927,41	0,242
927,65	0,243
927,90	0,243
928,14	0,243
928,39	0,243
928,64	0,244
928,88	0,244
929,13	0,244
929,37	0,244
929,62	0,244
929,87	0,245
930,11	0,245
930,36	0,246
930,60	0,246
930,85	0,247
931,10	0,247
931,34	0,248
931,59	0,249
931,83	0,249
932,08	0,250
932,33	0,250
932,57	0,251
932,82	0,252
933,06	0,252
933,31	0,253
933,56	0,254
933,80	0,255
934,05	0,255
934,29	0,256
934,54	0,258
934,78	0,259
935,03	0,259
935,28	0,260
935,52	0,261
935,77	0,262
936,01	0,263
936,26	0,264
936,51	0,265
936,75	0,266
937,00	0,267
937,24	0,268
937,49	0,269
937,73	0,269
937,98	0,270
938,22	0,271
938,47	0,272
938,72	0,273
938,96	0,274
939,21	0,275
939,45	0,276
939,70	0,277
939,94	0,279
940,19	0,280
940,44	0,280
940,68	0,281
940,93	0,282
941,17	0,283
941,42	0,284
941,66	0,285
941,91	0,286
942,15	0,287
942,40	0,289
942,65	0,289
942,89	0,291
943,14	0,292
943,38	0,293
943,63	0,293
943,87	0,294
944,12	0,295
944,36	0,296
944,61	0,297
944,85	0,298
945,10	0,299
945,35	0,300
945,59	0,301
945,84	0,302
946,08	0,303
946,33	0,304
946,57	0,306
946,82	0,307
947,06	0,308
947,31	0,310
947,55	0,311
947,80	0,313
948,04	0,314
948,29	0,316
948,54	0,317
948,78	0,319
949,03	0,320
949,27	0,321
949,52	0,322
949,76	0,324
950,01	0,326
950,25	0,328
950,50	0,330
950,74	0,332
950,99	0,334
951,23	0,335
951,48	0,337
951,72	0,339
951,97	0,340
952,21	0,342
952,46	0,344
952,70	0,345
952,95	0,347
953,19	0,349
953,44	0,351
953,68	0,352
953,93	0,354
954,17	0,355
954,42	0,357
954,66	0,358
954,91	0,360
955,15	0,361
955,40	0,362
955,64	0,363
955,89	0,365
956,13	0,366
956,38	0,368
956,62	0,370
956,87	0,371
957,11	0,373
957,36	0,374
957,60	0,375
957,85	0,376
958,09	0,376
958,34	0,377
958,58	0,377
958,83	0,378
959,07	0,379
959,32	0,380
959,56	0,380
959,81	0,381
960,05	0,382
960,30	0,383
960,54	0,383
960,79	0,384
961,03	0,384
961,28	0,385
961,52	0,385
961,77	0,386
962,01	0,386
962,26	0,387
962,50	0,388
962,75	0,388
962,99	0,389
963,24	0,389
963,48	0,389
963,73	0,390
963,97	0,389
964,21	0,390
964,46	0,390
964,70	0,391
964,95	0,391
965,19	0,391
965,44	0,391
965,68	0,391
965,93	0,391
966,17	0,392
966,42	0,392
966,66	0,392
966,91	0,392
967,15	0,393
967,40	0,393
967,64	0,394
967,88	0,394
968,13	0,394
968,37	0,394
968,62	0,394
968,86	0,394
969,11	0,394
969,35	0,394
969,60	0,394
969,84	0,394
970,09	0,394
970,33	0,395
970,57	0,395
970,82	0,396
971,06	0,396
971,31	0,396
971,55	0,396
971,80	0,396
972,04	0,396
972,29	0,396
972,53	0,396
972,77	0,396
973,02	0,396
973,26	0,396
973,51	0,396
973,75	0,396
974,00	0,396
974,24	0,397
974,48	0,397
974,73	0,397
974,97	0,397
975,22	0,396
975,46	0,396
975,71	0,397
975,95	0,396
976,19	0,395
976,44	0,395
976,68	0,395
976,93	0,396
977,17	0,395
977,42	0,395
977,66	0,395
977,90	0,395
978,15	0,396
978,39	0,396
978,64	0,395
978,88	0,395
979,12	0,395
979,37	0,394
979,61	0,395
979,86	0,394
980,10	0,394
980,35	0,393
980,59	0,393
980,83	0,393
981,08	0,392
981,32	0,391
981,57	0,391
981,81	0,391
982,05	0,390
982,30	0,390
982,54	0,389
982,79	0,389
983,03	0,389
983,27	0,389
983,52	0,388
983,76	0,388
984,01	0,388
984,25	0,388
984,49	0,388
984,74	0,388
984,98	0,388
985,23	0,387
985,47	0,387
985,71	0,387
985,96	0,386
986,20	0,386
986,45	0,385
986,69	0,385
986,93	0,384
987,18	0,383
987,42	0,383
987,66	0,382
987,91	0,381
988,15	0,381
988,40	0,380
988,64	0,379
988,88	0,379
989,13	0,378
989,37	0,378
989,61	0,378
989,86	0,377
990,10	0,377
990,35	0,376
990,59	0,376
990,83	0,376
991,08	0,376
991,32	0,376
991,56	0,376
991,81	0,375
992,05	0,376
992,30	0,375
992,54	0,375
992,78	0,373
993,03	0,372
993,27	0,371
993,51	0,371
993,76	0,370
994,00	0,370
994,24	0,369
994,49	0,369
994,73	0,368
994,98	0,367
995,22	0,366
995,46	0,366
995,71	0,365
995,95	0,365
996,19	0,365
996,44	0,365
996,68	0,365
996,92	0,364
997,17	0,363
997,41	0,362
997,65	0,362
997,90	0,361
998,14	0,361
998,38	0,360
998,63	0,359
998,87	0,358
999,11	0,358
999,36	0,357
999,60	0,357
999,84	0,356
1000,09	0,356
1000,33	0,356
1000,57	0,356
1000,82	0,356
1001,06	0,354
1001,30	0,354
1001,55	0,353
1001,79	0,353
1002,03	0,352
1002,28	0,351
1002,52	0,351
1002,76	0,351
1003,01	0,350
1003,25	0,349
1003,49	0,348
1003,74	0,347
1003,98	0,346
1004,22	0,345
1004,47	0,344
1004,71	0,344
1004,95	0,343
1005,20	0,342
1005,44	0,342
1005,68	0,341
1005,93	0,341
1006,17	0,340
1006,41	0,339
1006,66	0,338
1006,90	0,338
1007,14	0,337
1007,38	0,336
1007,63	0,335
1007,87	0,335
1008,11	0,334
1008,36	0,334
1008,60	0,333
1008,84	0,332
1009,09	0,332
1009,33	0,332
1009,57	0,332
1009,81	0,331
1010,06	0,331
1010,30	0,330
1010,54	0,330
1010,79	0,329
1011,03	0,328
1011,27	0,327
1011,52	0,327
1011,76	0,327
1012,00	0,326
1012,24	0,326
1012,49	0,325
1012,73	0,324
1012,97	0,324
1013,22	0,323
1013,46	0,322
1013,70	0,321
1013,94	0,320
1014,19	0,320
1014,43	0,320
1014,67	0,319
1014,92	0,317
1015,16	0,317
1015,40	0,316
1015,64	0,316
1015,89	0,314
1016,13	0,313
1016,37	0,312
1016,62	0,313
1016,86	0,312
1017,10	0,312
1017,34	0,311
1017,59	0,311
1017,83	0,312
1018,07	0,311
1018,31	0,310
1018,56	0,310
1018,80	0,308
1019,04	0,307
1019,28	0,306
1019,53	0,304
1019,77	0,303
1020,01	0,302
1020,26	0,301
1020,50	0,302
1020,74	0,302
1020,98	0,302
1021,23	0,302
1021,47	0,301
1021,71	0,301
1021,95	0,300
1022,20	0,298
1022,44	0,297
1022,68	0,296
1022,92	0,295
1023,17	0,295
1023,41	0,294
1023,65	0,293
1023,89	0,293
1024,14	0,293
1024,38	0,292
1024,62	0,293
1024,86	0,292
1025,11	0,291
1025,35	0,291
1025,59	0,291
1025,83	0,289
1026,07	0,289
1026,32	0,288
1026,56	0,288
1026,80	0,288
1027,04	0,287
1027,29	0,288
1027,53	0,288
1027,77	0,288
1028,01	0,287
1028,26	0,287
1028,50	0,285
1028,74	0,284
1028,98	0,282
1029,22	0,281
1029,47	0,280
1029,71	0,279
1029,95	0,280
1030,19	0,280
1030,44	0,279
1030,68	0,278
1030,92	0,278
1031,16	0,277
1031,40	0,277
1031,65	0,275
1031,89	0,274
1032,13	0,274
1032,37	0,273
1032,62	0,273
1032,86	0,273
1033,10	0,272
1033,34	0,272
1033,58	0,272
1033,83	0,272
1034,07	0,272
1034,31	0,271
1034,55	0,270
1034,79	0,270
1035,04	0,269
1035,28	0,268
1035,52	0,267
1035,76	0,267
1036,00	0,267
1036,25	0,266
1036,49	0,265
1036,73	0,265
1036,97	0,266
1037,21	0,265
1037,46	0,265
1037,70	0,264
1037,94	0,264
1038,18	0,263
1038,42	0,262
1038,67	0,261
1038,91	0,261
1039,15	0,260
1039,39	0,260
1039,63	0,260
1039,88	0,260
1040,12	0,259
1040,36	0,258
1040,60	0,257
1040,84	0,257
1041,08	0,255
1041,33	0,254
1041,57	0,254
1041,81	0,254
1042,05	0,254
1042,29	0,253
1042,53	0,253
1042,78	0,253
1043,02	0,253
1043,26	0,251
1043,50	0,251
1043,74	0,250
1043,99	0,250
1044,23	0,251
1044,47	0,250
1044,71	0,250
1044,95	0,250
1045,19	0,250
1045,44	0,250
1045,68	0,249
1045,92	0,247
1046,16	0,248
1046,40	0,249
1046,64	0,248
1046,88	0,247
1047,13	0,246
1047,37	0,246
1047,61	0,246
1047,85	0,246
1048,09	0,244
1048,33	0,245
1048,58	0,247
1048,82	0,245
1049,06	0,246
1049,30	0,245
1049,54	0,243
1049,78	0,243
1050,02	0,242
1050,27	0,241
1050,51	0,241
1050,75	0,241
1050,99	0,242
1051,23	0,244
1051,47	0,243
1051,71	0,243
1051,96	0,243
1052,20	0,242
1052,44	0,241
1052,68	0,239
1052,92	0,237
1053,16	0,237
1053,40	0,236
1053,65	0,235
1053,89	0,235
1054,13	0,237
1054,37	0,239
1054,61	0,240
1054,85	0,240
1055,09	0,241
1055,33	0,241
1055,58	0,241
1055,82	0,240
1056,06	0,239
1056,30	0,237
1056,54	0,237
1056,78	0,237
1057,02	0,237
1057,26	0,236
1057,51	0,235
1057,75	0,235
1057,99	0,234
1058,23	0,234
1058,47	0,233
1058,71	0,232
1058,95	0,231
1059,19	0,233
1059,43	0,233
1059,68	0,234
1059,92	0,235
1060,16	0,236
1060,40	0,236
1060,64	0,236
1060,88	0,234
1061,12	0,234
1061,36	0,234
1061,60	0,234
1061,84	0,233
1062,09	0,234
1062,33	0,236
1062,57	0,235
1062,81	0,237
1063,05	0,237
1063,29	0,236
1063,53	0,238
1063,77	0,236
1064,01	0,236
1064,25	0,239
1064,50	0,238
1064,74	0,236
1064,98	0,235
1065,22	0,234
1065,46	0,234
1065,70	0,234
1065,94	0,232
1066,18	0,231
1066,42	0,232
1066,66	0,233
1066,90	0,232
1067,14	0,234
1067,39	0,235
1067,63	0,233
1067,87	0,234
1068,11	0,232
1068,35	0,233
1068,59	0,232
1068,83	0,230
1069,07	0,229
1069,31	0,231
1069,55	0,230
1069,79	0,228
1070,03	0,227
1070,27	0,228
1070,52	0,229
1070,76	0,230
1071,00	0,230
1071,24	0,231
1071,48	0,233
1071,72	0,234
1071,96	0,234
1072,20	0,235
1072,44	0,233
1072,68	0,233
1072,92	0,235
1073,16	0,238
1073,40	0,237
1073,64	0,236
1073,88	0,235
1074,12	0,234
1074,36	0,233
1074,61	0,234
1074,85	0,230
1075,09	0,231
1075,33	0,234
1075,57	0,233
1075,81	0,235
1076,05	0,237
1076,29	0,233
1076,53	0,235
1076,77	0,236
1077,01	0,235
1077,25	0,235
1077,49	0,235
1077,73	0,234
1077,97	0,237
1078,21	0,236
1078,45	0,234
1078,69	0,231
1078,93	0,230
1079,17	0,229
1079,41	0,229
1079,65	0,229
1079,89	0,231
1080,13	0,231
1080,37	0,231
1080,61	0,233
1080,86	0,238
1081,10	0,237
1081,34	0,238
1081,58	0,235
1081,82	0,238
1082,06	0,240
1082,30	0,241
1082,54	0,238
1082,78	0,239
1083,02	0,238
1083,26	0,241
1083,50	0,239
1083,74	0,240
1083,98	0,238
1084,22	0,236
1084,46	0,235
1084,70	0,235
1084,94	0,233
1085,18	0,236
1085,42	0,240
1085,66	0,241
1085,90	0,245
1086,14	0,246
1086,38	0,246
1086,62	0,247
1086,86	0,246
1087,10	0,239
1087,34	0,239
1087,58	0,236
1087,82	0,235
1088,06	0,237
1088,30	0,237
1088,54	0,238
1088,78	0,241
1089,02	0,241
1089,26	0,243
1089,50	0,246
1089,74	0,246
1089,98	0,246
1090,22	0,243
1090,46	0,246
1090,70	0,244
1090,94	0,240
1091,18	0,242
1091,42	0,242
1091,66	0,243
1091,90	0,245
1092,14	0,243
1092,38	0,246
1092,62	0,252
1092,86	0,246
1093,10	0,247
1093,34	0,249
1093,58	0,245
1093,82	0,243
1094,06	0,241
1094,30	0,236
1094,54	0,240
1094,78	0,240
1095,01	0,242
1095,25	0,246
1095,49	0,248
1095,73	0,247
1095,97	0,252
1096,21	0,253
1096,45	0,257
1096,69	0,255
1096,93	0,253
1097,17	0,250
1097,41	0,249
1097,65	0,243
1097,89	0,245
1098,13	0,241
1098,37	0,244
1098,61	0,248
1098,85	0,254
1099,09	0,259
1099,33	0,266
1099,57	0,265
1099,81	0,265
1100,05	0,264
1100,29	0,263
1100,53	0,261
1100,77	0,263
1101,00	0,256
1101,24	0,256
1101,48	0,257
1101,72	0,256
1101,96	0,254
1102,20	0,257
1102,44	0,253
1102,68	0,257
1102,92	0,258
1103,16	0,257
1103,40	0,256
1103,64	0,259
1103,88	0,254
1104,12	0,250
1104,36	0,253
1104,60	0,253
1104,84	0,253
1105,07	0,258
1105,31	0,259
1105,55	0,266
1105,79	0,273
1106,03	0,276
1106,27	0,276
1106,51	0,274
1106,75	0,273
1106,99	0,273
1107,23	0,266
1107,47	0,266
1107,71	0,266
1107,95	0,262
1108,18	0,261
1108,42	0,260
1108,66	0,256
1108,90	0,256
1109,14	0,255
1109,38	0,251
1109,62	0,251
1109,86	0,256
1110,10	0,258
1110,34	0,268
1110,58	0,282
1110,82	0,288
1111,05	0,295
1111,29	0,298
1111,53	0,300
1111,77	0,304
1112,01	0,293
1112,25	0,289
1112,49	0,282
1112,73	0,279
1112,97	0,291
1113,21	0,296
1113,45	0,294
1113,68	0,297
1113,92	0,297
1114,16	0,306
1114,40	0,297
1114,64	0,276
1114,88	0,269
1115,12	0,269
1115,36	0,270
1115,60	0,254
1115,83	0,245
1116,07	0,253
1116,31	0,270
1116,55	0,270
1116,79	0,264
1117,03	0,258
1117,27	0,275
1117,51	0,279
1117,75	0,287
1117,98	0,274
1118,22	0,270
1118,46	0,285
1118,70	0,292
1118,94	0,278
1119,18	0,277
1119,42	0,271
1119,66	0,286
1119,89	0,277
1120,13	0,270
1120,37	0,262
1120,61	0,280
1120,85	0,290
1121,09	0,306
1121,33	0,325
1121,57	0,360
1121,80	0,379
1122,04	0,397
1122,28	0,387
1122,52	0,369
1122,76	0,348
1123,00	0,339
1123,24	0,256
1123,47	0,283
1123,71	0,415
>>>>>End Processed Spectral Data<<<<<
