SpectraSuite Data File
++++++++++++++++++++++++++++++++++++
Date: Wed Jan 04 02:05:02 GMT-03:00 2006
User: Lavfis
Dark Spectrum Present: Yes
Reference Spectrum Present: Yes
Number of Sampled Component Spectra: 1
Spectrometers: HR4C5405
Integration Time (usec): 4000 (HR4C5405)
Spectra Averaged: 4 (HR4C5405)
Boxcar Smoothing: 4 (HR4C5405)
Correct for Electrical Dark: Yes (HR4C5405)
Strobe/Lamp Enabled: No (HR4C5405)
Correct for Detector Non-linearity: No (HR4C5405)
Correct for Stray Light: No (HR4C5405)
Number of Pixels in Processed Spectrum: 3648
>>>>>Begin Processed Spectral Data<<<<<
194,53	0,008
194,80	-0,009
195,07	-0,009
195,34	0,024
195,61	0,008
195,88	0,016
196,15	0,025
196,42	0,044
196,69	0,082
196,96	0,136
197,23	0,162
197,50	0,090
197,77	-0,000
198,04	-0,160
198,31	-0,562
198,58	0,100
198,85	0,338
199,12	0,267
199,39	0,210
199,66	0,203
199,93	0,240
200,20	0,210
200,47	0,258
200,74	0,168
201,01	0,236
201,28	0,079
201,55	0,083
201,82	0,066
202,09	0,044
202,36	0,041
202,63	0,010
202,90	-0,033
203,17	-0,055
203,44	-0,053
203,71	-0,006
203,98	0,006
204,25	-0,000
204,52	0,050
204,79	0,060
205,06	0,064
205,33	0,077
205,60	0,082
205,86	0,089
206,13	0,077
206,40	0,068
206,67	0,076
206,94	0,046
207,21	0,046
207,48	0,022
207,75	0,024
208,02	0,028
208,29	0,031
208,56	0,032
208,83	0,032
209,10	0,027
209,37	0,046
209,64	0,070
209,91	0,152
210,18	0,175
210,45	0,301
210,72	0,265
210,99	0,341
211,26	-0,000
211,53	0,714
211,80	0,827
212,07	0,401
212,33	0,327
212,60	0,366
212,87	0,104
213,14	0,130
213,41	0,144
213,68	0,127
213,95	0,097
214,22	0,060
214,49	0,078
214,76	0,033
215,03	0,013
215,30	0,061
215,57	0,089
215,84	0,448
216,11	0,180
216,38	-0,487
216,65	0,660
216,91	0,531
217,18	0,458
217,45	-0,000
217,72	0,935
217,99	0,655
218,26	0,336
218,53	0,372
218,80	0,327
219,07	0,457
219,34	0,444
219,61	0,573
219,88	0,333
220,15	0,318
220,42	0,443
220,68	0,384
220,95	0,383
221,22	0,462
221,49	0,369
221,76	0,320
222,03	0,314
222,30	0,392
222,57	0,410
222,84	0,333
223,11	0,354
223,38	0,322
223,65	0,342
223,92	0,355
224,18	0,471
224,45	0,455
224,72	0,534
224,99	0,601
225,26	0,653
225,53	0,604
225,80	0,665
226,07	0,739
226,34	0,741
226,61	0,688
226,88	0,776
227,14	0,717
227,41	0,680
227,68	0,678
227,95	0,707
228,22	0,874
228,49	0,825
228,76	0,844
229,03	0,912
229,30	0,938
229,57	0,950
229,83	0,799
230,10	0,740
230,37	0,793
230,64	0,744
230,91	0,732
231,18	0,797
231,45	0,812
231,72	0,852
231,99	0,915
232,25	1,151
232,52	1,254
232,79	1,252
233,06	1,085
233,33	1,081
233,60	1,110
233,87	1,154
234,14	1,044
234,41	1,036
234,67	0,894
234,94	0,866
235,21	0,840
235,48	0,865
235,75	0,827
236,02	0,812
236,29	0,738
236,56	0,808
236,82	0,764
237,09	0,821
237,36	0,849
237,63	0,877
237,90	0,877
238,17	0,902
238,44	0,856
238,71	0,870
238,97	0,773
239,24	0,768
239,51	0,720
239,78	0,700
240,05	0,631
240,32	0,656
240,59	0,602
240,86	0,546
241,12	0,505
241,39	0,468
241,66	0,492
241,93	0,517
242,20	0,528
242,47	0,549
242,74	0,554
243,00	0,705
243,27	0,862
243,54	1,081
243,81	-0,000
244,08	-0,000
244,35	-0,000
244,62	-0,000
244,88	-0,000
245,15	-0,000
245,42	1,564
245,69	0,953
245,96	0,802
246,23	0,659
246,50	0,519
246,76	0,482
247,03	0,538
247,30	0,780
247,57	0,544
247,84	0,587
248,11	0,626
248,37	0,696
248,64	0,709
248,91	0,677
249,18	0,527
249,45	0,443
249,72	0,356
249,99	0,378
250,25	0,402
250,52	0,415
250,79	0,389
251,06	0,379
251,33	0,418
251,60	0,460
251,86	0,491
252,13	0,533
252,40	0,526
252,67	0,512
252,94	0,521
253,21	0,612
253,47	0,632
253,74	0,636
254,01	0,728
254,28	0,804
254,55	0,790
254,81	0,881
255,08	0,849
255,35	0,959
255,62	0,912
255,89	0,994
256,16	0,984
256,42	0,921
256,69	0,976
256,96	1,090
257,23	1,142
257,50	1,210
257,76	1,119
258,03	1,159
258,30	1,224
258,57	1,351
258,84	1,477
259,11	1,374
259,37	1,338
259,64	1,417
259,91	1,433
260,18	1,546
260,45	1,660
260,71	1,588
260,98	1,570
261,25	1,729
261,52	1,776
261,79	1,702
262,05	1,544
262,32	1,519
262,59	1,630
262,86	1,638
263,13	1,705
263,39	1,662
263,66	1,542
263,93	1,592
264,20	1,699
264,47	1,738
264,73	1,883
265,00	1,816
265,27	1,820
265,54	1,905
265,81	2,215
266,07	2,310
266,34	2,207
266,61	2,155
266,88	2,103
267,15	2,045
267,41	1,957
267,68	1,941
267,95	1,848
268,22	1,786
268,48	1,750
268,75	1,729
269,02	1,668
269,29	1,648
269,56	1,642
269,82	1,680
270,09	1,636
270,36	1,613
270,63	1,599
270,89	1,595
271,16	1,647
271,43	1,697
271,70	1,720
271,97	1,697
272,23	1,674
272,50	1,718
272,77	1,823
273,04	1,767
273,30	1,806
273,57	1,910
273,84	2,000
274,11	2,050
274,37	2,122
274,64	2,244
274,91	2,348
275,18	2,528
275,45	-0,000
275,71	3,373
275,98	2,175
276,25	1,972
276,52	2,063
276,78	2,169
277,05	2,058
277,32	1,962
277,59	1,865
277,85	1,815
278,12	1,871
278,39	1,856
278,66	1,924
278,92	1,835
279,19	1,727
279,46	1,726
279,73	1,760
279,99	1,741
280,26	1,801
280,53	1,697
280,80	1,721
281,06	1,700
281,33	1,775
281,60	1,896
281,87	1,942
282,13	1,883
282,40	1,881
282,67	1,836
282,94	2,081
283,20	2,071
283,47	2,314
283,74	2,228
284,01	2,171
284,27	2,285
284,54	2,703
284,81	2,428
285,07	2,586
285,34	2,192
285,61	2,398
285,88	2,095
286,14	2,021
286,41	1,982
286,68	1,872
286,95	1,794
287,21	1,853
287,48	1,865
287,75	1,892
288,02	1,851
288,28	1,899
288,55	1,951
288,82	1,877
289,08	1,880
289,35	2,616
289,62	-0,000
289,89	3,734
290,15	3,452
290,42	-0,000
290,69	-0,000
290,95	-0,000
291,22	-0,000
291,49	-0,000
291,76	2,257
292,02	2,069
292,29	1,946
292,56	1,930
292,82	1,800
293,09	1,729
293,36	1,701
293,63	1,686
293,89	1,699
294,16	1,715
294,43	1,668
294,69	1,650
294,96	1,644
295,23	1,638
295,50	1,636
295,76	1,619
296,03	1,584
296,30	1,575
296,56	1,573
296,83	1,583
297,10	1,565
297,36	1,553
297,63	1,521
297,90	1,492
298,16	1,476
298,43	1,477
298,70	1,453
298,97	1,433
299,23	1,421
299,50	1,394
299,77	1,359
300,03	1,345
300,30	1,317
300,57	1,290
300,83	1,271
301,10	1,251
301,37	1,242
301,63	1,227
301,90	1,220
302,17	1,198
302,44	1,175
302,70	1,171
302,97	1,152
303,24	1,132
303,50	1,115
303,77	1,094
304,04	1,078
304,30	1,070
304,57	1,059
304,84	1,054
305,10	1,047
305,37	1,050
305,64	1,039
305,90	1,031
306,17	1,018
306,44	1,003
306,70	0,983
306,97	0,981
307,24	0,965
307,50	0,943
307,77	0,924
308,04	0,914
308,30	0,902
308,57	0,890
308,84	0,880
309,10	0,873
309,37	0,860
309,64	0,851
309,90	0,841
310,17	0,832
310,44	0,821
310,70	0,812
310,97	0,802
311,24	0,794
311,50	0,787
311,77	0,781
312,04	0,777
312,30	0,773
312,57	0,767
312,84	0,762
313,10	0,760
313,37	0,752
313,63	0,748
313,90	0,740
314,17	0,732
314,43	0,724
314,70	0,717
314,97	0,712
315,23	0,706
315,50	0,698
315,77	0,696
316,03	0,689
316,30	0,684
316,57	0,681
316,83	0,677
317,10	0,673
317,36	0,669
317,63	0,666
317,90	0,663
318,16	0,657
318,43	0,654
318,70	0,654
318,96	0,648
319,23	0,644
319,50	0,640
319,76	0,633
320,03	0,628
320,29	0,623
320,56	0,618
320,83	0,611
321,09	0,605
321,36	0,603
321,63	0,602
321,89	0,601
322,16	0,599
322,42	0,599
322,69	0,594
322,96	0,591
323,22	0,587
323,49	0,582
323,76	0,577
324,02	0,573
324,29	0,570
324,55	0,568
324,82	0,561
325,09	0,560
325,35	0,559
325,62	0,559
325,88	0,560
326,15	0,560
326,42	0,558
326,68	0,553
326,95	0,549
327,21	0,548
327,48	0,546
327,75	0,541
328,01	0,537
328,28	0,533
328,55	0,527
328,81	0,525
329,08	0,525
329,34	0,525
329,61	0,523
329,88	0,522
330,14	0,524
330,41	0,523
330,67	0,522
330,94	0,521
331,21	0,518
331,47	0,514
331,74	0,514
332,00	0,512
332,27	0,508
332,53	0,503
332,80	0,501
333,07	0,502
333,33	0,500
333,60	0,498
333,86	0,498
334,13	0,494
334,40	0,493
334,66	0,491
334,93	0,489
335,19	0,488
335,46	0,482
335,73	0,479
335,99	0,478
336,26	0,476
336,52	0,474
336,79	0,471
337,05	0,469
337,32	0,469
337,59	0,467
337,85	0,468
338,12	0,469
338,38	0,469
338,65	0,468
338,91	0,467
339,18	0,466
339,45	0,464
339,71	0,461
339,98	0,459
340,24	0,456
340,51	0,454
340,77	0,451
341,04	0,450
341,31	0,450
341,57	0,448
341,84	0,448
342,10	0,447
342,37	0,447
342,63	0,446
342,90	0,445
343,17	0,444
343,43	0,441
343,70	0,439
343,96	0,438
344,23	0,436
344,49	0,436
344,76	0,434
345,02	0,433
345,29	0,430
345,56	0,429
345,82	0,427
346,09	0,424
346,35	0,421
346,62	0,420
346,88	0,418
347,15	0,417
347,41	0,417
347,68	0,418
347,94	0,416
348,21	0,417
348,48	0,415
348,74	0,413
349,01	0,413
349,27	0,412
349,54	0,411
349,80	0,409
350,07	0,408
350,33	0,406
350,60	0,403
350,86	0,403
351,13	0,402
351,39	0,399
351,66	0,397
351,93	0,394
352,19	0,393
352,46	0,390
352,72	0,389
352,99	0,388
353,25	0,387
353,52	0,385
353,78	0,384
354,05	0,384
354,31	0,384
354,58	0,383
354,84	0,383
355,11	0,381
355,37	0,380
355,64	0,378
355,90	0,378
356,17	0,378
356,43	0,376
356,70	0,373
356,97	0,371
357,23	0,368
357,50	0,367
357,76	0,367
358,03	0,365
358,29	0,364
358,56	0,362
358,82	0,361
359,09	0,361
359,35	0,361
359,62	0,361
359,88	0,361
360,15	0,360
360,41	0,359
360,68	0,359
360,94	0,358
361,21	0,357
361,47	0,355
361,74	0,355
362,00	0,354
362,27	0,353
362,53	0,350
362,80	0,349
363,06	0,347
363,33	0,346
363,59	0,345
363,86	0,344
364,12	0,343
364,39	0,341
364,65	0,341
364,92	0,341
365,18	0,341
365,45	0,339
365,71	0,339
365,98	0,338
366,24	0,337
366,51	0,334
366,77	0,334
367,04	0,332
367,30	0,330
367,57	0,328
367,83	0,327
368,10	0,326
368,36	0,325
368,63	0,325
368,89	0,325
369,15	0,324
369,42	0,324
369,68	0,323
369,95	0,322
370,21	0,320
370,48	0,318
370,74	0,318
371,01	0,315
371,27	0,314
371,54	0,313
371,80	0,311
372,07	0,311
372,33	0,309
372,60	0,308
372,86	0,308
373,13	0,306
373,39	0,306
373,66	0,305
373,92	0,304
374,18	0,304
374,45	0,303
374,71	0,303
374,98	0,302
375,24	0,301
375,51	0,302
375,77	0,301
376,04	0,300
376,30	0,299
376,57	0,297
376,83	0,297
377,10	0,296
377,36	0,296
377,62	0,295
377,89	0,293
378,15	0,292
378,42	0,291
378,68	0,290
378,95	0,291
379,21	0,289
379,48	0,288
379,74	0,287
380,00	0,286
380,27	0,287
380,53	0,287
380,80	0,287
381,06	0,287
381,33	0,286
381,59	0,286
381,86	0,286
382,12	0,285
382,38	0,284
382,65	0,283
382,91	0,281
383,18	0,280
383,44	0,280
383,71	0,279
383,97	0,278
384,24	0,279
384,50	0,278
384,76	0,278
385,03	0,278
385,29	0,278
385,56	0,277
385,82	0,276
386,09	0,276
386,35	0,275
386,61	0,273
386,88	0,272
387,14	0,272
387,41	0,272
387,67	0,271
387,94	0,271
388,20	0,271
388,46	0,271
388,73	0,270
388,99	0,269
389,26	0,269
389,52	0,269
389,78	0,269
390,05	0,268
390,31	0,268
390,58	0,268
390,84	0,267
391,11	0,267
391,37	0,267
391,63	0,267
391,90	0,267
392,16	0,267
392,43	0,267
392,69	0,265
392,95	0,266
393,22	0,267
393,48	0,267
393,75	0,267
394,01	0,267
394,27	0,266
394,54	0,266
394,80	0,266
395,07	0,266
395,33	0,265
395,59	0,264
395,86	0,265
396,12	0,266
396,39	0,266
396,65	0,267
396,91	0,267
397,18	0,266
397,44	0,266
397,71	0,266
397,97	0,266
398,23	0,267
398,50	0,267
398,76	0,266
399,03	0,266
399,29	0,266
399,55	0,267
399,82	0,268
400,08	0,269
400,34	0,270
400,61	0,270
400,87	0,271
401,14	0,272
401,40	0,274
401,66	0,274
401,93	0,274
402,19	0,275
402,46	0,276
402,72	0,276
402,98	0,276
403,25	0,275
403,51	0,276
403,77	0,276
404,04	0,277
404,30	0,278
404,57	0,279
404,83	0,279
405,09	0,281
405,36	0,283
405,62	0,284
405,88	0,284
406,15	0,285
406,41	0,285
406,67	0,285
406,94	0,285
407,20	0,286
407,47	0,285
407,73	0,285
407,99	0,286
408,26	0,287
408,52	0,288
408,78	0,289
409,05	0,290
409,31	0,291
409,57	0,292
409,84	0,293
410,10	0,294
410,37	0,294
410,63	0,295
410,89	0,294
411,16	0,296
411,42	0,295
411,68	0,296
411,95	0,295
412,21	0,295
412,47	0,296
412,74	0,297
413,00	0,297
413,26	0,297
413,53	0,296
413,79	0,296
414,05	0,296
414,32	0,296
414,58	0,296
414,84	0,294
415,11	0,295
415,37	0,295
415,63	0,296
415,90	0,295
416,16	0,295
416,42	0,295
416,69	0,296
416,95	0,296
417,21	0,297
417,48	0,298
417,74	0,298
418,00	0,298
418,27	0,298
418,53	0,297
418,79	0,297
419,06	0,297
419,32	0,297
419,58	0,297
419,85	0,297
420,11	0,296
420,37	0,295
420,64	0,296
420,90	0,296
421,16	0,297
421,43	0,296
421,69	0,296
421,95	0,296
422,22	0,296
422,48	0,297
422,74	0,297
423,01	0,298
423,27	0,299
423,53	0,298
423,79	0,299
424,06	0,299
424,32	0,299
424,58	0,300
424,85	0,300
425,11	0,299
425,37	0,300
425,64	0,300
425,90	0,301
426,16	0,302
426,43	0,302
426,69	0,303
426,95	0,305
427,21	0,306
427,48	0,307
427,74	0,308
428,00	0,308
428,27	0,309
428,53	0,309
428,79	0,309
429,06	0,310
429,32	0,309
429,58	0,310
429,84	0,310
430,11	0,311
430,37	0,311
430,63	0,312
430,90	0,312
431,16	0,313
431,42	0,313
431,68	0,315
431,95	0,315
432,21	0,315
432,47	0,316
432,74	0,316
433,00	0,316
433,26	0,316
433,52	0,315
433,79	0,315
434,05	0,314
434,31	0,313
434,58	0,312
434,84	0,311
435,10	0,310
435,36	0,310
435,63	0,310
435,89	0,309
436,15	0,309
436,41	0,308
436,68	0,308
436,94	0,307
437,20	0,306
437,47	0,306
437,73	0,305
437,99	0,303
438,25	0,301
438,52	0,299
438,78	0,298
439,04	0,296
439,30	0,295
439,57	0,293
439,83	0,292
440,09	0,290
440,35	0,287
440,62	0,288
440,88	0,287
441,14	0,286
441,41	0,284
441,67	0,283
441,93	0,281
442,19	0,279
442,46	0,278
442,72	0,278
442,98	0,274
443,24	0,272
443,51	0,270
443,77	0,269
444,03	0,269
444,29	0,267
444,56	0,265
444,82	0,263
445,08	0,261
445,34	0,260
445,61	0,259
445,87	0,258
446,13	0,256
446,39	0,254
446,65	0,253
446,92	0,252
447,18	0,252
447,44	0,251
447,70	0,250
447,97	0,249
448,23	0,247
448,49	0,246
448,75	0,244
449,02	0,242
449,28	0,241
449,54	0,241
449,80	0,240
450,07	0,239
450,33	0,237
450,59	0,236
450,85	0,236
451,11	0,235
451,38	0,235
451,64	0,234
451,90	0,233
452,16	0,232
452,43	0,232
452,69	0,232
452,95	0,232
453,21	0,231
453,47	0,231
453,74	0,230
454,00	0,229
454,26	0,229
454,52	0,230
454,79	0,229
455,05	0,229
455,31	0,229
455,57	0,228
455,83	0,228
456,10	0,228
456,36	0,228
456,62	0,227
456,88	0,227
457,14	0,227
457,41	0,227
457,67	0,227
457,93	0,226
458,19	0,226
458,45	0,227
458,72	0,227
458,98	0,228
459,24	0,227
459,50	0,228
459,76	0,227
460,03	0,228
460,29	0,228
460,55	0,228
460,81	0,228
461,07	0,227
461,34	0,227
461,60	0,227
461,86	0,227
462,12	0,227
462,38	0,227
462,65	0,227
462,91	0,227
463,17	0,228
463,43	0,229
463,69	0,229
463,96	0,230
464,22	0,229
464,48	0,229
464,74	0,229
465,00	0,229
465,26	0,229
465,53	0,229
465,79	0,229
466,05	0,229
466,31	0,229
466,57	0,229
466,84	0,229
467,10	0,229
467,36	0,229
467,62	0,228
467,88	0,228
468,14	0,228
468,41	0,227
468,67	0,227
468,93	0,226
469,19	0,226
469,45	0,226
469,71	0,225
469,98	0,225
470,24	0,225
470,50	0,224
470,76	0,224
471,02	0,226
471,28	0,226
471,55	0,225
471,81	0,224
472,07	0,223
472,33	0,222
472,59	0,221
472,85	0,220
473,12	0,218
473,38	0,216
473,64	0,214
473,90	0,214
474,16	0,213
474,42	0,212
474,68	0,211
474,95	0,210
475,21	0,209
475,47	0,208
475,73	0,206
475,99	0,205
476,25	0,203
476,52	0,202
476,78	0,200
477,04	0,199
477,30	0,198
477,56	0,196
477,82	0,195
478,08	0,193
478,35	0,192
478,61	0,190
478,87	0,189
479,13	0,188
479,39	0,186
479,65	0,184
479,91	0,183
480,17	0,181
480,44	0,180
480,70	0,179
480,96	0,178
481,22	0,176
481,48	0,174
481,74	0,173
482,00	0,172
482,27	0,171
482,53	0,169
482,79	0,168
483,05	0,166
483,31	0,165
483,57	0,163
483,83	0,162
484,09	0,160
484,36	0,159
484,62	0,157
484,88	0,155
485,14	0,154
485,40	0,152
485,66	0,151
485,92	0,149
486,18	0,148
486,44	0,147
486,71	0,146
486,97	0,144
487,23	0,144
487,49	0,142
487,75	0,142
488,01	0,141
488,27	0,140
488,53	0,139
488,79	0,138
489,06	0,137
489,32	0,136
489,58	0,135
489,84	0,134
490,10	0,132
490,36	0,131
490,62	0,130
490,88	0,129
491,14	0,129
491,40	0,128
491,67	0,127
491,93	0,127
492,19	0,126
492,45	0,125
492,71	0,124
492,97	0,124
493,23	0,123
493,49	0,122
493,75	0,121
494,01	0,121
494,28	0,120
494,54	0,120
494,80	0,119
495,06	0,119
495,32	0,118
495,58	0,118
495,84	0,117
496,10	0,117
496,36	0,116
496,62	0,115
496,88	0,115
497,14	0,114
497,41	0,114
497,67	0,114
497,93	0,113
498,19	0,112
498,45	0,112
498,71	0,111
498,97	0,111
499,23	0,110
499,49	0,110
499,75	0,109
500,01	0,109
500,27	0,108
500,53	0,107
500,80	0,107
501,06	0,107
501,32	0,106
501,58	0,106
501,84	0,106
502,10	0,106
502,36	0,106
502,62	0,106
502,88	0,106
503,14	0,105
503,40	0,105
503,66	0,105
503,92	0,104
504,18	0,104
504,44	0,104
504,70	0,103
504,97	0,102
505,23	0,102
505,49	0,102
505,75	0,101
506,01	0,101
506,27	0,101
506,53	0,101
506,79	0,100
507,05	0,100
507,31	0,100
507,57	0,100
507,83	0,100
508,09	0,100
508,35	0,100
508,61	0,099
508,87	0,099
509,13	0,099
509,39	0,099
509,65	0,099
509,91	0,098
510,17	0,098
510,43	0,098
510,70	0,098
510,96	0,098
511,22	0,098
511,48	0,097
511,74	0,097
512,00	0,097
512,26	0,098
512,52	0,097
512,78	0,097
513,04	0,097
513,30	0,097
513,56	0,097
513,82	0,097
514,08	0,097
514,34	0,097
514,60	0,097
514,86	0,097
515,12	0,097
515,38	0,097
515,64	0,097
515,90	0,097
516,16	0,097
516,42	0,096
516,68	0,097
516,94	0,096
517,20	0,096
517,46	0,096
517,72	0,096
517,98	0,096
518,24	0,096
518,50	0,096
518,76	0,096
519,02	0,096
519,28	0,096
519,54	0,096
519,80	0,096
520,06	0,096
520,32	0,096
520,58	0,095
520,84	0,095
521,10	0,095
521,36	0,095
521,62	0,095
521,88	0,095
522,14	0,095
522,40	0,096
522,66	0,096
522,92	0,096
523,18	0,096
523,44	0,096
523,70	0,097
523,96	0,097
524,22	0,097
524,48	0,097
524,74	0,097
525,00	0,097
525,26	0,097
525,52	0,096
525,78	0,096
526,04	0,096
526,30	0,096
526,56	0,095
526,82	0,095
527,08	0,095
527,34	0,095
527,60	0,095
527,86	0,095
528,12	0,096
528,38	0,096
528,64	0,096
528,90	0,096
529,16	0,096
529,42	0,096
529,68	0,096
529,94	0,096
530,20	0,096
530,46	0,096
530,72	0,095
530,98	0,095
531,24	0,095
531,50	0,095
531,76	0,096
532,02	0,096
532,28	0,095
532,54	0,096
532,80	0,096
533,06	0,096
533,32	0,096
533,58	0,096
533,84	0,096
534,10	0,095
534,35	0,095
534,61	0,095
534,87	0,096
535,13	0,095
535,39	0,095
535,65	0,095
535,91	0,095
536,17	0,095
536,43	0,096
536,69	0,096
536,95	0,096
537,21	0,096
537,47	0,096
537,73	0,096
537,99	0,095
538,25	0,095
538,51	0,095
538,77	0,094
539,03	0,094
539,29	0,094
539,55	0,094
539,80	0,094
540,06	0,093
540,32	0,093
540,58	0,093
540,84	0,093
541,10	0,093
541,36	0,093
541,62	0,093
541,88	0,092
542,14	0,093
542,40	0,093
542,66	0,093
542,92	0,093
543,18	0,093
543,44	0,093
543,70	0,093
543,95	0,093
544,21	0,093
544,47	0,092
544,73	0,092
544,99	0,092
545,25	0,092
545,51	0,092
545,77	0,092
546,03	0,092
546,29	0,092
546,55	0,092
546,81	0,092
547,07	0,092
547,32	0,092
547,58	0,092
547,84	0,092
548,10	0,092
548,36	0,092
548,62	0,092
548,88	0,093
549,14	0,092
549,40	0,092
549,66	0,092
549,92	0,092
550,18	0,092
550,43	0,092
550,69	0,092
550,95	0,092
551,21	0,091
551,47	0,091
551,73	0,091
551,99	0,091
552,25	0,091
552,51	0,092
552,77	0,092
553,03	0,092
553,28	0,091
553,54	0,091
553,80	0,091
554,06	0,091
554,32	0,090
554,58	0,090
554,84	0,090
555,10	0,089
555,36	0,089
555,61	0,089
555,87	0,089
556,13	0,089
556,39	0,089
556,65	0,090
556,91	0,090
557,17	0,090
557,43	0,091
557,69	0,091
557,94	0,091
558,20	0,091
558,46	0,091
558,72	0,091
558,98	0,091
559,24	0,090
559,50	0,091
559,76	0,090
560,02	0,090
560,27	0,090
560,53	0,090
560,79	0,091
561,05	0,091
561,31	0,092
561,57	0,092
561,83	0,091
562,09	0,091
562,34	0,092
562,60	0,092
562,86	0,091
563,12	0,091
563,38	0,091
563,64	0,091
563,90	0,091
564,15	0,092
564,41	0,092
564,67	0,092
564,93	0,092
565,19	0,092
565,45	0,092
565,71	0,092
565,97	0,092
566,22	0,092
566,48	0,092
566,74	0,092
567,00	0,092
567,26	0,092
567,52	0,092
567,78	0,092
568,03	0,093
568,29	0,092
568,55	0,093
568,81	0,093
569,07	0,093
569,33	0,093
569,58	0,093
569,84	0,093
570,10	0,093
570,36	0,093
570,62	0,093
570,88	0,093
571,14	0,093
571,39	0,094
571,65	0,093
571,91	0,093
572,17	0,093
572,43	0,093
572,69	0,093
572,94	0,093
573,20	0,093
573,46	0,093
573,72	0,093
573,98	0,094
574,24	0,094
574,49	0,095
574,75	0,095
575,01	0,095
575,27	0,095
575,53	0,095
575,79	0,095
576,04	0,095
576,30	0,095
576,56	0,095
576,82	0,095
577,08	0,095
577,33	0,095
577,59	0,095
577,85	0,095
578,11	0,095
578,37	0,095
578,63	0,094
578,88	0,095
579,14	0,095
579,40	0,094
579,66	0,094
579,92	0,094
580,17	0,094
580,43	0,094
580,69	0,094
580,95	0,094
581,21	0,094
581,47	0,094
581,72	0,094
581,98	0,095
582,24	0,094
582,50	0,095
582,76	0,095
583,01	0,095
583,27	0,095
583,53	0,096
583,79	0,096
584,05	0,096
584,30	0,096
584,56	0,096
584,82	0,096
585,08	0,095
585,34	0,095
585,59	0,095
585,85	0,095
586,11	0,094
586,37	0,094
586,63	0,094
586,88	0,094
587,14	0,094
587,40	0,094
587,66	0,094
587,91	0,094
588,17	0,094
588,43	0,094
588,69	0,094
588,95	0,094
589,20	0,094
589,46	0,094
589,72	0,094
589,98	0,094
590,24	0,095
590,49	0,095
590,75	0,095
591,01	0,096
591,27	0,096
591,52	0,096
591,78	0,096
592,04	0,097
592,30	0,097
592,55	0,096
592,81	0,096
593,07	0,096
593,33	0,096
593,59	0,096
593,84	0,096
594,10	0,096
594,36	0,096
594,62	0,096
594,87	0,096
595,13	0,096
595,39	0,096
595,65	0,097
595,90	0,097
596,16	0,097
596,42	0,097
596,68	0,097
596,93	0,097
597,19	0,097
597,45	0,097
597,71	0,098
597,97	0,098
598,22	0,098
598,48	0,098
598,74	0,099
599,00	0,099
599,25	0,099
599,51	0,099
599,77	0,099
600,03	0,100
600,28	0,100
600,54	0,100
600,80	0,100
601,05	0,100
601,31	0,100
601,57	0,100
601,83	0,100
602,08	0,100
602,34	0,100
602,60	0,100
602,86	0,100
603,11	0,100
603,37	0,099
603,63	0,099
603,89	0,100
604,14	0,100
604,40	0,100
604,66	0,100
604,92	0,100
605,17	0,101
605,43	0,101
605,69	0,101
605,94	0,102
606,20	0,102
606,46	0,102
606,72	0,102
606,97	0,102
607,23	0,102
607,49	0,102
607,75	0,102
608,00	0,103
608,26	0,103
608,52	0,103
608,77	0,103
609,03	0,103
609,29	0,103
609,55	0,103
609,80	0,104
610,06	0,104
610,32	0,104
610,57	0,104
610,83	0,104
611,09	0,104
611,35	0,104
611,60	0,104
611,86	0,104
612,12	0,104
612,37	0,104
612,63	0,104
612,89	0,104
613,15	0,105
613,40	0,105
613,66	0,105
613,92	0,105
614,17	0,105
614,43	0,105
614,69	0,105
614,94	0,104
615,20	0,105
615,46	0,105
615,72	0,105
615,97	0,104
616,23	0,104
616,49	0,104
616,74	0,104
617,00	0,104
617,26	0,104
617,51	0,104
617,77	0,104
618,03	0,104
618,28	0,104
618,54	0,104
618,80	0,104
619,05	0,103
619,31	0,103
619,57	0,103
619,83	0,103
620,08	0,102
620,34	0,102
620,60	0,102
620,85	0,102
621,11	0,103
621,37	0,103
621,62	0,103
621,88	0,103
622,14	0,103
622,39	0,103
622,65	0,103
622,91	0,103
623,16	0,103
623,42	0,103
623,68	0,103
623,93	0,103
624,19	0,103
624,45	0,103
624,70	0,103
624,96	0,103
625,22	0,103
625,47	0,102
625,73	0,102
625,99	0,102
626,24	0,102
626,50	0,101
626,76	0,101
627,01	0,101
627,27	0,101
627,53	0,101
627,78	0,101
628,04	0,101
628,30	0,101
628,55	0,101
628,81	0,101
629,07	0,102
629,32	0,102
629,58	0,102
629,83	0,102
630,09	0,102
630,35	0,102
630,60	0,102
630,86	0,103
631,12	0,103
631,37	0,102
631,63	0,102
631,89	0,102
632,14	0,102
632,40	0,102
632,66	0,102
632,91	0,102
633,17	0,103
633,42	0,103
633,68	0,103
633,94	0,103
634,19	0,103
634,45	0,103
634,71	0,103
634,96	0,104
635,22	0,104
635,48	0,104
635,73	0,104
635,99	0,104
636,24	0,105
636,50	0,104
636,76	0,105
637,01	0,105
637,27	0,105
637,53	0,106
637,78	0,107
638,04	0,107
638,29	0,107
638,55	0,107
638,81	0,108
639,06	0,108
639,32	0,109
639,57	0,109
639,83	0,110
640,09	0,110
640,34	0,111
640,60	0,111
640,86	0,111
641,11	0,112
641,37	0,113
641,62	0,113
641,88	0,114
642,14	0,114
642,39	0,115
642,65	0,115
642,90	0,116
643,16	0,117
643,42	0,117
643,67	0,118
643,93	0,118
644,18	0,118
644,44	0,119
644,70	0,119
644,95	0,120
645,21	0,120
645,46	0,121
645,72	0,121
645,98	0,122
646,23	0,123
646,49	0,123
646,74	0,124
647,00	0,125
647,26	0,126
647,51	0,126
647,77	0,127
648,02	0,128
648,28	0,129
648,54	0,131
648,79	0,131
649,05	0,132
649,30	0,133
649,56	0,134
649,81	0,135
650,07	0,136
650,33	0,137
650,58	0,138
650,84	0,139
651,09	0,140
651,35	0,142
651,60	0,143
651,86	0,145
652,12	0,146
652,37	0,147
652,63	0,148
652,88	0,150
653,14	0,151
653,39	0,153
653,65	0,153
653,91	0,155
654,16	0,156
654,42	0,158
654,67	0,159
654,93	0,161
655,18	0,162
655,44	0,164
655,70	0,166
655,95	0,167
656,21	0,169
656,46	0,171
656,72	0,172
656,97	0,174
657,23	0,175
657,49	0,176
657,74	0,178
658,00	0,179
658,25	0,180
658,51	0,182
658,76	0,183
659,02	0,185
659,27	0,186
659,53	0,187
659,78	0,188
660,04	0,189
660,30	0,190
660,55	0,191
660,81	0,192
661,06	0,193
661,32	0,193
661,57	0,193
661,83	0,193
662,08	0,194
662,34	0,194
662,59	0,195
662,85	0,194
663,11	0,194
663,36	0,194
663,62	0,194
663,87	0,193
664,13	0,193
664,38	0,192
664,64	0,191
664,89	0,190
665,15	0,190
665,40	0,189
665,66	0,187
665,91	0,186
666,17	0,185
666,42	0,184
666,68	0,183
666,93	0,181
667,19	0,180
667,45	0,178
667,70	0,176
667,96	0,175
668,21	0,173
668,47	0,171
668,72	0,169
668,98	0,167
669,23	0,165
669,49	0,163
669,74	0,161
670,00	0,159
670,25	0,157
670,51	0,155
670,76	0,153
671,02	0,151
671,27	0,149
671,53	0,147
671,78	0,145
672,04	0,143
672,29	0,141
672,55	0,139
672,80	0,136
673,06	0,134
673,31	0,132
673,57	0,130
673,82	0,127
674,08	0,125
674,33	0,123
674,59	0,121
674,84	0,119
675,10	0,118
675,35	0,116
675,61	0,114
675,86	0,113
676,12	0,112
676,37	0,110
676,63	0,109
676,88	0,107
677,14	0,105
677,39	0,104
677,65	0,102
677,90	0,100
678,16	0,099
678,41	0,097
678,67	0,096
678,92	0,094
679,18	0,093
679,43	0,092
679,69	0,092
679,94	0,091
680,20	0,090
680,45	0,089
680,71	0,088
680,96	0,087
681,21	0,086
681,47	0,086
681,72	0,085
681,98	0,084
682,23	0,083
682,49	0,082
682,74	0,082
683,00	0,081
683,25	0,081
683,51	0,080
683,76	0,079
684,02	0,079
684,27	0,078
684,53	0,077
684,78	0,077
685,04	0,076
685,29	0,076
685,54	0,075
685,80	0,075
686,05	0,075
686,31	0,074
686,56	0,074
686,82	0,074
687,07	0,073
687,33	0,073
687,58	0,073
687,84	0,072
688,09	0,072
688,34	0,072
688,60	0,072
688,85	0,071
689,11	0,071
689,36	0,071
689,62	0,071
689,87	0,071
690,13	0,070
690,38	0,070
690,64	0,070
690,89	0,070
691,14	0,070
691,40	0,070
691,65	0,070
691,91	0,069
692,16	0,069
692,42	0,069
692,67	0,069
692,92	0,069
693,18	0,069
693,43	0,069
693,69	0,069
693,94	0,069
694,20	0,068
694,45	0,068
694,71	0,068
694,96	0,067
695,21	0,067
695,47	0,067
695,72	0,067
695,98	0,067
696,23	0,067
696,48	0,067
696,74	0,067
696,99	0,067
697,25	0,067
697,50	0,067
697,76	0,067
698,01	0,067
698,26	0,067
698,52	0,067
698,77	0,067
699,03	0,067
699,28	0,067
699,54	0,067
699,79	0,067
700,04	0,066
700,30	0,066
700,55	0,066
700,81	0,066
701,06	0,066
701,31	0,066
701,57	0,066
701,82	0,066
702,08	0,066
702,33	0,066
702,58	0,066
702,84	0,066
703,09	0,066
703,35	0,067
703,60	0,067
703,85	0,067
704,11	0,067
704,36	0,066
704,62	0,066
704,87	0,066
705,12	0,066
705,38	0,066
705,63	0,066
705,89	0,065
706,14	0,066
706,39	0,066
706,65	0,066
706,90	0,066
707,16	0,066
707,41	0,066
707,66	0,067
707,92	0,067
708,17	0,067
708,42	0,067
708,68	0,066
708,93	0,066
709,19	0,066
709,44	0,066
709,69	0,066
709,95	0,066
710,20	0,066
710,46	0,065
710,71	0,065
710,96	0,066
711,22	0,065
711,47	0,065
711,72	0,065
711,98	0,065
712,23	0,065
712,48	0,065
712,74	0,065
712,99	0,065
713,25	0,065
713,50	0,065
713,75	0,066
714,01	0,066
714,26	0,066
714,51	0,065
714,77	0,066
715,02	0,065
715,28	0,065
715,53	0,065
715,78	0,065
716,04	0,066
716,29	0,066
716,54	0,065
716,80	0,065
717,05	0,065
717,30	0,065
717,56	0,065
717,81	0,065
718,06	0,065
718,32	0,065
718,57	0,065
718,82	0,065
719,08	0,065
719,33	0,066
719,58	0,066
719,84	0,066
720,09	0,066
720,35	0,066
720,60	0,065
720,85	0,065
721,11	0,065
721,36	0,066
721,61	0,066
721,87	0,066
722,12	0,066
722,37	0,066
722,63	0,066
722,88	0,066
723,13	0,065
723,39	0,065
723,64	0,064
723,89	0,064
724,15	0,064
724,40	0,064
724,65	0,064
724,91	0,064
725,16	0,065
725,41	0,065
725,67	0,065
725,92	0,066
726,17	0,066
726,42	0,066
726,68	0,066
726,93	0,066
727,18	0,066
727,44	0,067
727,69	0,066
727,94	0,066
728,20	0,066
728,45	0,066
728,70	0,066
728,96	0,066
729,21	0,066
729,46	0,066
729,72	0,066
729,97	0,066
730,22	0,066
730,48	0,065
730,73	0,065
730,98	0,066
731,23	0,066
731,49	0,066
731,74	0,066
731,99	0,067
732,25	0,067
732,50	0,067
732,75	0,068
733,01	0,068
733,26	0,068
733,51	0,068
733,76	0,068
734,02	0,068
734,27	0,068
734,52	0,068
734,78	0,068
735,03	0,068
735,28	0,067
735,54	0,067
735,79	0,067
736,04	0,068
736,29	0,068
736,55	0,068
736,80	0,068
737,05	0,068
737,31	0,068
737,56	0,068
737,81	0,068
738,06	0,068
738,32	0,068
738,57	0,069
738,82	0,069
739,07	0,068
739,33	0,068
739,58	0,068
739,83	0,068
740,09	0,068
740,34	0,068
740,59	0,068
740,84	0,067
741,10	0,068
741,35	0,068
741,60	0,068
741,86	0,068
742,11	0,068
742,36	0,068
742,61	0,068
742,87	0,068
743,12	0,068
743,37	0,068
743,62	0,068
743,88	0,068
744,13	0,068
744,38	0,068
744,63	0,068
744,89	0,068
745,14	0,067
745,39	0,067
745,64	0,067
745,90	0,067
746,15	0,067
746,40	0,067
746,65	0,067
746,91	0,067
747,16	0,067
747,41	0,067
747,66	0,067
747,92	0,067
748,17	0,067
748,42	0,067
748,67	0,067
748,93	0,067
749,18	0,067
749,43	0,066
749,68	0,066
749,94	0,066
750,19	0,066
750,44	0,066
750,69	0,066
750,95	0,066
751,20	0,066
751,45	0,066
751,70	0,066
751,96	0,066
752,21	0,066
752,46	0,066
752,71	0,066
752,96	0,067
753,22	0,067
753,47	0,067
753,72	0,067
753,97	0,067
754,23	0,067
754,48	0,067
754,73	0,067
754,98	0,067
755,24	0,067
755,49	0,067
755,74	0,066
755,99	0,066
756,24	0,066
756,50	0,066
756,75	0,066
757,00	0,066
757,25	0,066
757,50	0,066
757,76	0,066
758,01	0,066
758,26	0,066
758,51	0,066
758,77	0,066
759,02	0,067
759,27	0,067
759,52	0,067
759,77	0,066
760,03	0,067
760,28	0,067
760,53	0,067
760,78	0,067
761,03	0,067
761,29	0,066
761,54	0,066
761,79	0,066
762,04	0,066
762,29	0,066
762,55	0,066
762,80	0,066
763,05	0,066
763,30	0,066
763,55	0,066
763,81	0,066
764,06	0,066
764,31	0,066
764,56	0,066
764,81	0,066
765,07	0,066
765,32	0,066
765,57	0,066
765,82	0,066
766,07	0,066
766,32	0,066
766,58	0,066
766,83	0,066
767,08	0,066
767,33	0,066
767,58	0,066
767,84	0,066
768,09	0,066
768,34	0,066
768,59	0,066
768,84	0,066
769,09	0,066
769,35	0,066
769,60	0,066
769,85	0,066
770,10	0,066
770,35	0,066
770,60	0,066
770,86	0,066
771,11	0,066
771,36	0,065
771,61	0,065
771,86	0,065
772,11	0,065
772,37	0,065
772,62	0,065
772,87	0,065
773,12	0,065
773,37	0,066
773,62	0,066
773,88	0,066
774,13	0,066
774,38	0,066
774,63	0,065
774,88	0,065
775,13	0,066
775,38	0,065
775,64	0,065
775,89	0,065
776,14	0,065
776,39	0,065
776,64	0,066
776,89	0,066
777,15	0,066
777,40	0,065
777,65	0,065
777,90	0,065
778,15	0,065
778,40	0,065
778,65	0,065
778,91	0,065
779,16	0,064
779,41	0,064
779,66	0,064
779,91	0,064
780,16	0,064
780,41	0,064
780,66	0,064
780,92	0,064
781,17	0,064
781,42	0,064
781,67	0,065
781,92	0,065
782,17	0,065
782,42	0,065
782,68	0,065
782,93	0,065
783,18	0,065
783,43	0,065
783,68	0,065
783,93	0,065
784,18	0,065
784,43	0,065
784,69	0,065
784,94	0,065
785,19	0,065
785,44	0,065
785,69	0,065
785,94	0,065
786,19	0,065
786,44	0,065
786,69	0,065
786,95	0,065
787,20	0,065
787,45	0,065
787,70	0,064
787,95	0,065
788,20	0,064
788,45	0,064
788,70	0,064
788,95	0,064
789,21	0,065
789,46	0,065
789,71	0,065
789,96	0,064
790,21	0,065
790,46	0,065
790,71	0,065
790,96	0,065
791,21	0,065
791,46	0,065
791,72	0,065
791,97	0,064
792,22	0,064
792,47	0,064
792,72	0,064
792,97	0,064
793,22	0,064
793,47	0,064
793,72	0,064
793,97	0,064
794,22	0,064
794,47	0,064
794,73	0,064
794,98	0,064
795,23	0,064
795,48	0,064
795,73	0,064
795,98	0,065
796,23	0,066
796,48	0,066
796,73	0,066
796,98	0,066
797,23	0,065
797,48	0,065
797,74	0,065
797,99	0,065
798,24	0,065
798,49	0,065
798,74	0,065
798,99	0,065
799,24	0,066
799,49	0,066
799,74	0,066
799,99	0,066
800,24	0,066
800,49	0,066
800,74	0,065
800,99	0,065
801,24	0,065
801,50	0,065
801,75	0,065
802,00	0,065
802,25	0,065
802,50	0,065
802,75	0,065
803,00	0,066
803,25	0,066
803,50	0,066
803,75	0,065
804,00	0,065
804,25	0,065
804,50	0,065
804,75	0,065
805,00	0,065
805,25	0,065
805,50	0,065
805,75	0,065
806,00	0,066
806,26	0,065
806,51	0,065
806,76	0,065
807,01	0,065
807,26	0,066
807,51	0,066
807,76	0,065
808,01	0,065
808,26	0,066
808,51	0,066
808,76	0,066
809,01	0,066
809,26	0,066
809,51	0,066
809,76	0,066
810,01	0,066
810,26	0,066
810,51	0,066
810,76	0,066
811,01	0,065
811,26	0,065
811,51	0,065
811,76	0,065
812,01	0,065
812,26	0,065
812,51	0,065
812,76	0,065
813,01	0,065
813,26	0,064
813,51	0,064
813,76	0,064
814,01	0,064
814,26	0,065
814,51	0,065
814,76	0,065
815,02	0,065
815,27	0,065
815,52	0,065
815,77	0,065
816,02	0,065
816,27	0,065
816,52	0,064
816,77	0,064
817,02	0,065
817,27	0,065
817,52	0,065
817,77	0,064
818,02	0,064
818,27	0,064
818,52	0,064
818,77	0,064
819,02	0,064
819,27	0,064
819,52	0,064
819,77	0,064
820,02	0,064
820,27	0,064
820,52	0,064
820,77	0,064
821,02	0,064
821,27	0,065
821,52	0,065
821,77	0,065
822,02	0,065
822,26	0,064
822,51	0,065
822,76	0,065
823,01	0,065
823,26	0,065
823,51	0,065
823,76	0,065
824,01	0,065
824,26	0,065
824,51	0,065
824,76	0,065
825,01	0,066
825,26	0,066
825,51	0,066
825,76	0,066
826,01	0,066
826,26	0,066
826,51	0,066
826,76	0,066
827,01	0,066
827,26	0,065
827,51	0,065
827,76	0,064
828,01	0,064
828,26	0,064
828,51	0,064
828,76	0,064
829,01	0,064
829,26	0,064
829,51	0,064
829,76	0,064
830,01	0,064
830,26	0,064
830,51	0,064
830,76	0,065
831,00	0,065
831,25	0,065
831,50	0,065
831,75	0,065
832,00	0,066
832,25	0,066
832,50	0,066
832,75	0,066
833,00	0,066
833,25	0,066
833,50	0,066
833,75	0,065
834,00	0,065
834,25	0,064
834,50	0,064
834,75	0,064
835,00	0,064
835,25	0,064
835,50	0,064
835,74	0,064
835,99	0,064
836,24	0,064
836,49	0,064
836,74	0,064
836,99	0,065
837,24	0,065
837,49	0,064
837,74	0,064
837,99	0,064
838,24	0,065
838,49	0,065
838,74	0,065
838,99	0,064
839,24	0,064
839,48	0,064
839,73	0,064
839,98	0,064
840,23	0,064
840,48	0,063
840,73	0,063
840,98	0,064
841,23	0,064
841,48	0,064
841,73	0,064
841,98	0,065
842,23	0,065
842,48	0,065
842,72	0,065
842,97	0,065
843,22	0,065
843,47	0,065
843,72	0,065
843,97	0,065
844,22	0,065
844,47	0,065
844,72	0,065
844,97	0,065
845,22	0,065
845,46	0,065
845,71	0,065
845,96	0,065
846,21	0,065
846,46	0,065
846,71	0,065
846,96	0,065
847,21	0,065
847,46	0,065
847,71	0,065
847,95	0,065
848,20	0,065
848,45	0,065
848,70	0,065
848,95	0,065
849,20	0,064
849,45	0,064
849,70	0,064
849,95	0,064
850,19	0,064
850,44	0,064
850,69	0,063
850,94	0,063
851,19	0,063
851,44	0,063
851,69	0,063
851,94	0,063
852,19	0,063
852,43	0,064
852,68	0,064
852,93	0,064
853,18	0,064
853,43	0,064
853,68	0,065
853,93	0,065
854,18	0,065
854,42	0,064
854,67	0,064
854,92	0,064
855,17	0,064
855,42	0,064
855,67	0,064
855,92	0,064
856,16	0,064
856,41	0,064
856,66	0,064
856,91	0,064
857,16	0,064
857,41	0,064
857,66	0,063
857,91	0,063
858,15	0,063
858,40	0,064
858,65	0,064
858,90	0,063
859,15	0,064
859,40	0,064
859,65	0,064
859,89	0,064
860,14	0,064
860,39	0,064
860,64	0,065
860,89	0,065
861,14	0,065
861,38	0,066
861,63	0,066
861,88	0,066
862,13	0,066
862,38	0,066
862,63	0,066
862,88	0,066
863,12	0,066
863,37	0,067
863,62	0,067
863,87	0,066
864,12	0,066
864,37	0,066
864,61	0,066
864,86	0,066
865,11	0,066
865,36	0,066
865,61	0,065
865,86	0,065
866,10	0,066
866,35	0,066
866,60	0,066
866,85	0,066
867,10	0,066
867,35	0,066
867,59	0,067
867,84	0,067
868,09	0,067
868,34	0,067
868,59	0,068
868,83	0,067
869,08	0,067
869,33	0,068
869,58	0,068
869,83	0,068
870,08	0,068
870,32	0,068
870,57	0,068
870,82	0,068
871,07	0,068
871,32	0,068
871,56	0,068
871,81	0,068
872,06	0,068
872,31	0,068
872,56	0,068
872,81	0,068
873,05	0,068
873,30	0,068
873,55	0,067
873,80	0,067
874,05	0,068
874,29	0,068
874,54	0,068
874,79	0,068
875,04	0,069
875,29	0,069
875,53	0,069
875,78	0,069
876,03	0,069
876,28	0,068
876,52	0,068
876,77	0,069
877,02	0,069
877,27	0,069
877,52	0,069
877,76	0,070
878,01	0,070
878,26	0,070
878,51	0,070
878,76	0,070
879,00	0,070
879,25	0,070
879,50	0,070
879,75	0,070
880,00	0,070
880,24	0,070
880,49	0,070
880,74	0,070
880,99	0,070
881,23	0,070
881,48	0,070
881,73	0,069
881,98	0,069
882,22	0,070
882,47	0,070
882,72	0,071
882,97	0,071
883,22	0,071
883,46	0,071
883,71	0,071
883,96	0,071
884,21	0,071
884,45	0,071
884,70	0,071
884,95	0,071
885,20	0,071
885,44	0,071
885,69	0,071
885,94	0,072
886,19	0,072
886,43	0,072
886,68	0,073
886,93	0,073
887,18	0,074
887,42	0,074
887,67	0,075
887,92	0,075
888,17	0,075
888,42	0,075
888,66	0,075
888,91	0,075
889,16	0,076
889,40	0,076
889,65	0,076
889,90	0,076
890,15	0,077
890,39	0,077
890,64	0,077
890,89	0,078
891,14	0,078
891,38	0,079
891,63	0,079
891,88	0,080
892,13	0,080
892,37	0,081
892,62	0,082
892,87	0,082
893,12	0,082
893,36	0,083
893,61	0,083
893,86	0,084
894,11	0,085
894,35	0,086
894,60	0,086
894,85	0,087
895,09	0,088
895,34	0,089
895,59	0,089
895,84	0,090
896,08	0,090
896,33	0,091
896,58	0,091
896,82	0,092
897,07	0,093
897,32	0,093
897,57	0,094
897,81	0,095
898,06	0,096
898,31	0,096
898,55	0,097
898,80	0,098
899,05	0,099
899,30	0,099
899,54	0,099
899,79	0,100
900,04	0,101
900,28	0,102
900,53	0,102
900,78	0,102
901,03	0,103
901,27	0,104
901,52	0,105
901,77	0,106
902,01	0,106
902,26	0,106
902,51	0,107
902,75	0,107
903,00	0,108
903,25	0,109
903,50	0,110
903,74	0,110
903,99	0,111
904,24	0,112
904,48	0,112
904,73	0,113
904,98	0,113
905,22	0,113
905,47	0,113
905,72	0,114
905,96	0,114
906,21	0,114
906,46	0,113
906,70	0,114
906,95	0,114
907,20	0,114
907,45	0,114
907,69	0,113
907,94	0,113
908,19	0,112
908,43	0,111
908,68	0,111
908,93	0,110
909,17	0,110
909,42	0,109
909,67	0,108
909,91	0,107
910,16	0,107
910,41	0,106
910,65	0,105
910,90	0,104
911,15	0,103
911,39	0,102
911,64	0,102
911,89	0,101
912,13	0,100
912,38	0,099
912,63	0,098
912,87	0,098
913,12	0,097
913,37	0,097
913,61	0,096
913,86	0,095
914,11	0,095
914,35	0,094
914,60	0,094
914,85	0,094
915,09	0,094
915,34	0,094
915,58	0,094
915,83	0,094
916,08	0,093
916,32	0,093
916,57	0,093
916,82	0,093
917,06	0,092
917,31	0,092
917,56	0,092
917,80	0,092
918,05	0,092
918,30	0,092
918,54	0,092
918,79	0,092
919,04	0,092
919,28	0,092
919,53	0,091
919,77	0,091
920,02	0,091
920,27	0,091
920,51	0,091
920,76	0,091
921,01	0,090
921,25	0,090
921,50	0,090
921,74	0,090
921,99	0,089
922,24	0,089
922,48	0,089
922,73	0,089
922,98	0,089
923,22	0,089
923,47	0,089
923,71	0,088
923,96	0,088
924,21	0,088
924,45	0,088
924,70	0,088
924,95	0,088
925,19	0,088
925,44	0,088
925,68	0,088
925,93	0,088
926,18	0,087
926,42	0,087
926,67	0,087
926,91	0,087
927,16	0,086
927,41	0,086
927,65	0,086
927,90	0,086
928,14	0,086
928,39	0,086
928,64	0,086
928,88	0,086
929,13	0,086
929,37	0,086
929,62	0,086
929,87	0,086
930,11	0,086
930,36	0,085
930,60	0,085
930,85	0,085
931,10	0,085
931,34	0,085
931,59	0,085
931,83	0,085
932,08	0,085
932,33	0,086
932,57	0,086
932,82	0,086
933,06	0,086
933,31	0,086
933,56	0,086
933,80	0,086
934,05	0,086
934,29	0,086
934,54	0,086
934,78	0,086
935,03	0,087
935,28	0,087
935,52	0,087
935,77	0,087
936,01	0,087
936,26	0,087
936,51	0,087
936,75	0,088
937,00	0,088
937,24	0,087
937,49	0,087
937,73	0,087
937,98	0,087
938,22	0,087
938,47	0,087
938,72	0,086
938,96	0,086
939,21	0,086
939,45	0,086
939,70	0,086
939,94	0,086
940,19	0,087
940,44	0,087
940,68	0,087
940,93	0,087
941,17	0,087
941,42	0,087
941,66	0,087
941,91	0,087
942,15	0,086
942,40	0,086
942,65	0,086
942,89	0,085
943,14	0,085
943,38	0,085
943,63	0,084
943,87	0,084
944,12	0,083
944,36	0,083
944,61	0,083
944,85	0,083
945,10	0,082
945,35	0,082
945,59	0,082
945,84	0,082
946,08	0,082
946,33	0,082
946,57	0,081
946,82	0,081
947,06	0,082
947,31	0,082
947,55	0,081
947,80	0,081
948,04	0,081
948,29	0,081
948,54	0,081
948,78	0,081
949,03	0,081
949,27	0,080
949,52	0,080
949,76	0,080
950,01	0,080
950,25	0,080
950,50	0,080
950,74	0,080
950,99	0,080
951,23	0,080
951,48	0,080
951,72	0,080
951,97	0,080
952,21	0,079
952,46	0,080
952,70	0,079
952,95	0,079
953,19	0,079
953,44	0,079
953,68	0,079
953,93	0,079
954,17	0,079
954,42	0,080
954,66	0,080
954,91	0,080
955,15	0,080
955,40	0,080
955,64	0,081
955,89	0,081
956,13	0,081
956,38	0,081
956,62	0,082
956,87	0,082
957,11	0,082
957,36	0,083
957,60	0,083
957,85	0,084
958,09	0,084
958,34	0,084
958,58	0,085
958,83	0,085
959,07	0,085
959,32	0,085
959,56	0,085
959,81	0,085
960,05	0,086
960,30	0,086
960,54	0,086
960,79	0,086
961,03	0,087
961,28	0,087
961,52	0,087
961,77	0,087
962,01	0,087
962,26	0,087
962,50	0,087
962,75	0,087
962,99	0,087
963,24	0,087
963,48	0,087
963,73	0,087
963,97	0,087
964,21	0,087
964,46	0,087
964,70	0,087
964,95	0,088
965,19	0,088
965,44	0,088
965,68	0,088
965,93	0,088
966,17	0,089
966,42	0,089
966,66	0,089
966,91	0,088
967,15	0,088
967,40	0,088
967,64	0,088
967,88	0,088
968,13	0,088
968,37	0,088
968,62	0,088
968,86	0,089
969,11	0,090
969,35	0,090
969,60	0,090
969,84	0,090
970,09	0,091
970,33	0,091
970,57	0,091
970,82	0,091
971,06	0,091
971,31	0,091
971,55	0,091
971,80	0,091
972,04	0,091
972,29	0,091
972,53	0,091
972,77	0,092
973,02	0,092
973,26	0,092
973,51	0,092
973,75	0,093
974,00	0,093
974,24	0,093
974,48	0,093
974,73	0,093
974,97	0,094
975,22	0,093
975,46	0,094
975,71	0,094
975,95	0,094
976,19	0,094
976,44	0,094
976,68	0,094
976,93	0,095
977,17	0,094
977,42	0,095
977,66	0,095
977,90	0,095
978,15	0,096
978,39	0,096
978,64	0,097
978,88	0,097
979,12	0,097
979,37	0,098
979,61	0,098
979,86	0,098
980,10	0,098
980,35	0,098
980,59	0,098
980,83	0,098
981,08	0,099
981,32	0,099
981,57	0,099
981,81	0,100
982,05	0,100
982,30	0,100
982,54	0,100
982,79	0,100
983,03	0,101
983,27	0,101
983,52	0,101
983,76	0,101
984,01	0,101
984,25	0,101
984,49	0,101
984,74	0,102
984,98	0,102
985,23	0,102
985,47	0,103
985,71	0,103
985,96	0,104
986,20	0,104
986,45	0,104
986,69	0,104
986,93	0,105
987,18	0,105
987,42	0,105
987,66	0,106
987,91	0,106
988,15	0,106
988,40	0,106
988,64	0,107
988,88	0,107
989,13	0,108
989,37	0,108
989,61	0,109
989,86	0,109
990,10	0,109
990,35	0,109
990,59	0,109
990,83	0,109
991,08	0,109
991,32	0,108
991,56	0,108
991,81	0,108
992,05	0,109
992,30	0,109
992,54	0,109
992,78	0,109
993,03	0,110
993,27	0,111
993,51	0,111
993,76	0,111
994,00	0,112
994,24	0,112
994,49	0,112
994,73	0,113
994,98	0,113
995,22	0,113
995,46	0,113
995,71	0,113
995,95	0,114
996,19	0,113
996,44	0,113
996,68	0,113
996,92	0,113
997,17	0,113
997,41	0,113
997,65	0,113
997,90	0,114
998,14	0,114
998,38	0,114
998,63	0,114
998,87	0,115
999,11	0,116
999,36	0,116
999,60	0,117
999,84	0,117
1000,09	0,117
1000,33	0,117
1000,57	0,117
1000,82	0,117
1001,06	0,117
1001,30	0,117
1001,55	0,117
1001,79	0,118
1002,03	0,118
1002,28	0,118
1002,52	0,118
1002,76	0,119
1003,01	0,120
1003,25	0,120
1003,49	0,120
1003,74	0,120
1003,98	0,120
1004,22	0,120
1004,47	0,120
1004,71	0,121
1004,95	0,121
1005,20	0,121
1005,44	0,120
1005,68	0,121
1005,93	0,122
1006,17	0,122
1006,41	0,122
1006,66	0,122
1006,90	0,122
1007,14	0,122
1007,38	0,123
1007,63	0,123
1007,87	0,123
1008,11	0,123
1008,36	0,123
1008,60	0,124
1008,84	0,124
1009,09	0,125
1009,33	0,125
1009,57	0,125
1009,81	0,125
1010,06	0,125
1010,30	0,125
1010,54	0,126
1010,79	0,125
1011,03	0,126
1011,27	0,126
1011,52	0,126
1011,76	0,126
1012,00	0,127
1012,24	0,127
1012,49	0,128
1012,73	0,128
1012,97	0,128
1013,22	0,127
1013,46	0,127
1013,70	0,127
1013,94	0,127
1014,19	0,127
1014,43	0,126
1014,67	0,126
1014,92	0,125
1015,16	0,125
1015,40	0,125
1015,64	0,125
1015,89	0,124
1016,13	0,124
1016,37	0,123
1016,62	0,124
1016,86	0,124
1017,10	0,124
1017,34	0,124
1017,59	0,124
1017,83	0,124
1018,07	0,124
1018,31	0,123
1018,56	0,124
1018,80	0,124
1019,04	0,124
1019,28	0,123
1019,53	0,123
1019,77	0,122
1020,01	0,122
1020,26	0,122
1020,50	0,121
1020,74	0,121
1020,98	0,121
1021,23	0,121
1021,47	0,121
1021,71	0,121
1021,95	0,120
1022,20	0,120
1022,44	0,121
1022,68	0,121
1022,92	0,120
1023,17	0,119
1023,41	0,119
1023,65	0,119
1023,89	0,120
1024,14	0,120
1024,38	0,120
1024,62	0,120
1024,86	0,119
1025,11	0,119
1025,35	0,119
1025,59	0,119
1025,83	0,118
1026,07	0,117
1026,32	0,117
1026,56	0,117
1026,80	0,116
1027,04	0,116
1027,29	0,116
1027,53	0,116
1027,77	0,115
1028,01	0,115
1028,26	0,116
1028,50	0,116
1028,74	0,116
1028,98	0,116
1029,22	0,115
1029,47	0,115
1029,71	0,114
1029,95	0,114
1030,19	0,114
1030,44	0,114
1030,68	0,114
1030,92	0,114
1031,16	0,113
1031,40	0,113
1031,65	0,113
1031,89	0,114
1032,13	0,114
1032,37	0,114
1032,62	0,113
1032,86	0,113
1033,10	0,113
1033,34	0,113
1033,58	0,113
1033,83	0,113
1034,07	0,113
1034,31	0,112
1034,55	0,112
1034,79	0,113
1035,04	0,112
1035,28	0,112
1035,52	0,112
1035,76	0,111
1036,00	0,111
1036,25	0,110
1036,49	0,111
1036,73	0,110
1036,97	0,109
1037,21	0,110
1037,46	0,109
1037,70	0,109
1037,94	0,110
1038,18	0,110
1038,42	0,111
1038,67	0,111
1038,91	0,111
1039,15	0,112
1039,39	0,112
1039,63	0,113
1039,88	0,113
1040,12	0,113
1040,36	0,113
1040,60	0,112
1040,84	0,112
1041,08	0,112
1041,33	0,114
1041,57	0,113
1041,81	0,113
1042,05	0,113
1042,29	0,114
1042,53	0,113
1042,78	0,114
1043,02	0,113
1043,26	0,113
1043,50	0,112
1043,74	0,112
1043,99	0,111
1044,23	0,111
1044,47	0,111
1044,71	0,112
1044,95	0,113
1045,19	0,114
1045,44	0,113
1045,68	0,113
1045,92	0,113
1046,16	0,114
1046,40	0,114
1046,64	0,113
1046,88	0,112
1047,13	0,111
1047,37	0,111
1047,61	0,111
1047,85	0,112
1048,09	0,110
1048,33	0,110
1048,58	0,110
1048,82	0,110
1049,06	0,110
1049,30	0,109
1049,54	0,109
1049,78	0,108
1050,02	0,108
1050,27	0,109
1050,51	0,108
1050,75	0,108
1050,99	0,107
1051,23	0,107
1051,47	0,108
1051,71	0,107
1051,96	0,107
1052,20	0,107
1052,44	0,108
1052,68	0,108
1052,92	0,108
1053,16	0,108
1053,40	0,108
1053,65	0,108
1053,89	0,108
1054,13	0,109
1054,37	0,109
1054,61	0,109
1054,85	0,109
1055,09	0,109
1055,33	0,110
1055,58	0,109
1055,82	0,108
1056,06	0,109
1056,30	0,111
1056,54	0,111
1056,78	0,110
1057,02	0,109
1057,26	0,109
1057,51	0,110
1057,75	0,110
1057,99	0,109
1058,23	0,108
1058,47	0,107
1058,71	0,105
1058,95	0,106
1059,19	0,106
1059,43	0,105
1059,68	0,105
1059,92	0,105
1060,16	0,104
1060,40	0,105
1060,64	0,105
1060,88	0,106
1061,12	0,105
1061,36	0,104
1061,60	0,103
1061,84	0,102
1062,09	0,102
1062,33	0,102
1062,57	0,102
1062,81	0,102
1063,05	0,101
1063,29	0,101
1063,53	0,101
1063,77	0,103
1064,01	0,105
1064,25	0,106
1064,50	0,106
1064,74	0,105
1064,98	0,103
1065,22	0,103
1065,46	0,103
1065,70	0,101
1065,94	0,099
1066,18	0,098
1066,42	0,097
1066,66	0,098
1066,90	0,100
1067,14	0,102
1067,39	0,102
1067,63	0,103
1067,87	0,106
1068,11	0,106
1068,35	0,105
1068,59	0,106
1068,83	0,105
1069,07	0,103
1069,31	0,102
1069,55	0,102
1069,79	0,101
1070,03	0,100
1070,27	0,101
1070,52	0,102
1070,76	0,102
1071,00	0,100
1071,24	0,100
1071,48	0,101
1071,72	0,099
1071,96	0,101
1072,20	0,101
1072,44	0,101
1072,68	0,100
1072,92	0,100
1073,16	0,102
1073,40	0,103
1073,64	0,099
1073,88	0,102
1074,12	0,106
1074,36	0,106
1074,61	0,106
1074,85	0,106
1075,09	0,107
1075,33	0,106
1075,57	0,107
1075,81	0,109
1076,05	0,107
1076,29	0,102
1076,53	0,100
1076,77	0,102
1077,01	0,102
1077,25	0,102
1077,49	0,102
1077,73	0,100
1077,97	0,100
1078,21	0,101
1078,45	0,101
1078,69	0,102
1078,93	0,100
1079,17	0,099
1079,41	0,099
1079,65	0,098
1079,89	0,100
1080,13	0,099
1080,37	0,100
1080,61	0,098
1080,86	0,096
1081,10	0,095
1081,34	0,093
1081,58	0,092
1081,82	0,093
1082,06	0,092
1082,30	0,093
1082,54	0,096
1082,78	0,096
1083,02	0,096
1083,26	0,099
1083,50	0,099
1083,74	0,101
1083,98	0,102
1084,22	0,102
1084,46	0,101
1084,70	0,100
1084,94	0,100
1085,18	0,101
1085,42	0,100
1085,66	0,100
1085,90	0,099
1086,14	0,098
1086,38	0,097
1086,62	0,095
1086,86	0,093
1087,10	0,095
1087,34	0,097
1087,58	0,097
1087,82	0,097
1088,06	0,096
1088,30	0,094
1088,54	0,093
1088,78	0,094
1089,02	0,094
1089,26	0,093
1089,50	0,090
1089,74	0,090
1089,98	0,092
1090,22	0,095
1090,46	0,098
1090,70	0,100
1090,94	0,101
1091,18	0,099
1091,42	0,098
1091,66	0,098
1091,90	0,101
1092,14	0,103
1092,38	0,100
1092,62	0,096
1092,86	0,100
1093,10	0,097
1093,34	0,098
1093,58	0,097
1093,82	0,092
1094,06	0,088
1094,30	0,085
1094,54	0,085
1094,78	0,089
1095,01	0,086
1095,25	0,089
1095,49	0,092
1095,73	0,096
1095,97	0,104
1096,21	0,107
1096,45	0,106
1096,69	0,107
1096,93	0,104
1097,17	0,104
1097,41	0,103
1097,65	0,096
1097,89	0,091
1098,13	0,089
1098,37	0,085
1098,61	0,086
1098,85	0,086
1099,09	0,087
1099,33	0,089
1099,57	0,090
1099,81	0,096
1100,05	0,100
1100,29	0,101
1100,53	0,104
1100,77	0,100
1101,00	0,099
1101,24	0,098
1101,48	0,097
1101,72	0,096
1101,96	0,094
1102,20	0,088
1102,44	0,089
1102,68	0,091
1102,92	0,091
1103,16	0,092
1103,40	0,092
1103,64	0,086
1103,88	0,084
1104,12	0,086
1104,36	0,087
1104,60	0,089
1104,84	0,086
1105,07	0,087
1105,31	0,084
1105,55	0,083
1105,79	0,091
1106,03	0,088
1106,27	0,086
1106,51	0,090
1106,75	0,089
1106,99	0,093
1107,23	0,097
1107,47	0,101
1107,71	0,099
1107,95	0,096
1108,18	0,103
1108,42	0,105
1108,66	0,103
1108,90	0,099
1109,14	0,089
1109,38	0,082
1109,62	0,081
1109,86	0,085
1110,10	0,087
1110,34	0,085
1110,58	0,090
1110,82	0,094
1111,05	0,096
1111,29	0,102
1111,53	0,103
1111,77	0,104
1112,01	0,108
1112,25	0,104
1112,49	0,103
1112,73	0,100
1112,97	0,094
1113,21	0,093
1113,45	0,088
1113,68	0,087
1113,92	0,085
1114,16	0,077
1114,40	0,076
1114,64	0,074
1114,88	0,071
1115,12	0,068
1115,36	0,066
1115,60	0,076
1115,83	0,074
1116,07	0,078
1116,31	0,078
1116,55	0,080
1116,79	0,081
1117,03	0,082
1117,27	0,079
1117,51	0,085
1117,75	0,081
1117,98	0,083
1118,22	0,086
1118,46	0,081
1118,70	0,078
1118,94	0,075
1119,18	0,087
1119,42	0,096
1119,66	0,093
1119,89	0,094
1120,13	0,099
1120,37	0,096
1120,61	0,107
1120,85	0,116
1121,09	0,123
1121,33	0,119
1121,57	0,112
1121,80	0,121
1122,04	0,119
1122,28	0,134
1122,52	0,138
1122,76	0,142
1123,00	0,113
1123,24	0,273
1123,47	0,124
1123,71	0,107
>>>>>End Processed Spectral Data<<<<<
