SpectraSuite Data File
++++++++++++++++++++++++++++++++++++
Date: Tue Jan 03 19:57:09 GMT-03:00 2006
User: Lavfis
Dark Spectrum Present: Yes
Reference Spectrum Present: Yes
Number of Sampled Component Spectra: 1
Spectrometers: HR4C5405
Integration Time (usec): 4000 (HR4C5405)
Spectra Averaged: 3 (HR4C5405)
Boxcar Smoothing: 3 (HR4C5405)
Correct for Electrical Dark: Yes (HR4C5405)
Strobe/Lamp Enabled: No (HR4C5405)
Correct for Detector Non-linearity: No (HR4C5405)
Correct for Stray Light: No (HR4C5405)
Number of Pixels in Processed Spectrum: 3648
>>>>>Begin Processed Spectral Data<<<<<
194,53	-0,133
194,80	1,118
195,07	1,118
195,34	-0,012
195,61	0,245
195,88	0,153
196,15	-0,076
196,42	0,115
196,69	-0,149
196,96	0,546
197,23	-0,326
197,50	-0,266
197,77	-0,629
198,04	-0,705
198,31	0,532
198,58	-0,635
198,85	-0,000
199,12	-0,000
199,39	0,471
199,66	0,354
199,93	-0,033
200,20	0,123
200,47	0,208
200,74	-0,073
201,01	-0,037
201,28	0,011
201,55	0,104
201,82	-0,121
202,09	-0,624
202,36	-0,112
202,63	-0,253
202,90	-0,000
203,17	-0,360
203,44	-0,204
203,71	-0,457
203,98	0,028
204,25	0,089
204,52	0,051
204,79	0,154
205,06	0,083
205,33	0,043
205,60	-1,658
205,86	-0,043
206,13	-0,265
206,40	-0,130
206,67	-0,186
206,94	-0,131
207,21	-0,000
207,48	-0,270
207,75	-0,067
208,02	-0,061
208,29	0,041
208,56	0,336
208,83	-0,000
209,10	0,272
209,37	-0,000
209,64	0,184
209,91	0,270
210,18	0,145
210,45	0,270
210,72	0,383
210,99	0,199
211,26	0,152
211,53	0,345
211,80	0,060
212,07	0,005
212,33	-1,340
212,60	-0,275
212,87	0,159
213,14	0,122
213,41	0,160
213,68	-0,000
213,95	0,556
214,22	-0,294
214,49	-0,354
214,76	-0,049
215,03	-0,173
215,30	-0,120
215,57	-0,058
215,84	-0,076
216,11	0,211
216,38	-0,161
216,65	-0,089
216,91	0,409
217,18	0,783
217,45	-0,000
217,72	0,723
217,99	-0,000
218,26	1,244
218,53	0,572
218,80	0,138
219,07	0,232
219,34	0,468
219,61	0,266
219,88	0,056
220,15	-0,088
220,42	-0,419
220,68	-0,583
220,95	-0,395
221,22	0,292
221,49	0,161
221,76	-0,413
222,03	0,025
222,30	0,020
222,57	-0,160
222,84	-0,000
223,11	-0,035
223,38	0,019
223,65	-0,086
223,92	0,005
224,18	0,076
224,45	0,088
224,72	0,336
224,99	0,098
225,26	0,244
225,53	0,150
225,80	-0,000
226,07	-0,000
226,34	0,258
226,61	-0,000
226,88	0,288
227,14	0,547
227,41	0,104
227,68	0,230
227,95	0,123
228,22	-0,162
228,49	-0,041
228,76	-0,002
229,03	0,057
229,30	0,084
229,57	-0,022
229,83	-0,025
230,10	0,122
230,37	0,155
230,64	0,163
230,91	-0,299
231,18	-0,000
231,45	-0,675
231,72	-0,051
231,99	-0,036
232,25	-0,013
232,52	-0,000
232,79	0,253
233,06	-0,054
233,33	-0,010
233,60	0,105
233,87	0,157
234,14	0,114
234,41	0,368
234,67	0,280
234,94	0,166
235,21	0,380
235,48	0,135
235,75	1,570
236,02	-0,000
236,29	-0,020
236,56	0,068
236,82	0,054
237,09	0,276
237,36	0,256
237,63	0,607
237,90	-0,079
238,17	0,009
238,44	0,136
238,71	0,158
238,97	0,062
239,24	0,043
239,51	0,135
239,78	0,201
240,05	0,141
240,32	0,058
240,59	0,155
240,86	0,861
241,12	-0,000
241,39	0,196
241,66	-0,703
241,93	-0,000
242,20	0,076
242,47	0,100
242,74	0,205
243,00	-0,000
243,27	-0,254
243,54	-0,286
243,81	-0,000
244,08	-0,434
244,35	-0,160
244,62	-0,029
244,88	0,312
245,15	-0,303
245,42	0,214
245,69	0,221
245,96	-0,000
246,23	-0,000
246,50	0,886
246,76	-0,083
247,03	-0,030
247,30	0,007
247,57	0,198
247,84	0,084
248,11	0,127
248,37	0,180
248,64	0,933
248,91	-0,319
249,18	-0,000
249,45	0,072
249,72	0,062
249,99	0,062
250,25	-0,018
250,52	-0,037
250,79	0,037
251,06	0,073
251,33	-0,053
251,60	0,023
251,86	0,064
252,13	0,245
252,40	0,462
252,67	0,180
252,94	-0,000
253,21	0,852
253,47	1,511
253,74	0,332
254,01	-0,000
254,28	0,383
254,55	0,245
254,81	0,657
255,08	0,325
255,35	0,068
255,62	0,094
255,89	0,096
256,16	-0,000
256,42	0,199
256,69	0,238
256,96	0,373
257,23	0,878
257,50	0,305
257,76	0,201
258,03	0,222
258,30	0,058
258,57	0,045
258,84	0,082
259,11	0,137
259,37	0,100
259,64	0,224
259,91	0,211
260,18	0,226
260,45	-0,000
260,71	-0,000
260,98	0,607
261,25	0,516
261,52	0,408
261,79	0,688
262,05	0,345
262,32	0,162
262,59	0,315
262,86	1,109
263,13	0,107
263,39	0,144
263,66	0,039
263,93	-0,103
264,20	-0,065
264,47	-0,091
264,73	-0,112
265,00	-0,228
265,27	-0,272
265,54	-0,041
265,81	0,071
266,07	-0,043
266,34	0,079
266,61	0,061
266,88	0,010
267,15	0,072
267,41	0,024
267,68	0,028
267,95	-0,047
268,22	-0,075
268,48	-0,145
268,75	0,173
269,02	-0,071
269,29	-0,005
269,56	0,041
269,82	0,024
270,09	0,001
270,36	0,068
270,63	0,066
270,89	0,041
271,16	-0,037
271,43	0,030
271,70	-0,299
271,97	0,759
272,23	0,019
272,50	0,140
272,77	0,713
273,04	0,068
273,30	-0,027
273,57	0,088
273,84	0,051
274,11	0,048
274,37	0,115
274,64	0,777
274,91	0,335
275,18	-0,000
275,45	-0,000
275,71	0,513
275,98	0,265
276,25	-0,000
276,52	-1,691
276,78	0,093
277,05	0,017
277,32	-0,055
277,59	0,032
277,85	0,185
278,12	0,025
278,39	0,007
278,66	-0,021
278,92	0,028
279,19	-0,022
279,46	-0,187
279,73	-0,079
279,99	-0,190
280,26	-0,009
280,53	0,029
280,80	0,021
281,06	0,150
281,33	0,144
281,60	0,093
281,87	0,191
282,13	0,047
282,40	0,096
282,67	0,073
282,94	0,125
283,20	-0,000
283,47	0,304
283,74	0,138
284,01	0,230
284,27	0,198
284,54	0,343
284,81	0,113
285,07	0,196
285,34	0,157
285,61	0,165
285,88	0,102
286,14	0,137
286,41	0,322
286,68	0,210
286,95	0,165
287,21	0,287
287,48	0,359
287,75	0,363
288,02	-0,000
288,28	0,317
288,55	0,587
288,82	0,556
289,08	0,483
289,35	0,510
289,62	0,553
289,89	0,347
290,15	0,433
290,42	0,336
290,69	0,535
290,95	0,637
291,22	1,075
291,49	0,753
291,76	0,481
292,02	1,846
292,29	0,659
292,56	0,583
292,82	0,835
293,09	0,736
293,36	0,768
293,63	0,758
293,89	0,518
294,16	0,554
294,43	0,747
294,69	0,709
294,96	0,815
295,23	0,857
295,50	0,751
295,76	0,797
296,03	1,130
296,30	0,831
296,56	0,776
296,83	0,810
297,10	0,708
297,36	0,655
297,63	0,642
297,90	0,630
298,16	0,839
298,43	0,841
298,70	0,769
298,97	0,828
299,23	0,755
299,50	0,745
299,77	0,832
300,03	0,859
300,30	0,837
300,57	0,710
300,83	0,865
301,10	0,901
301,37	0,950
301,63	0,856
301,90	0,856
302,17	0,795
302,44	0,805
302,70	0,899
302,97	0,836
303,24	0,794
303,50	0,764
303,77	0,764
304,04	0,831
304,30	0,748
304,57	0,846
304,84	0,803
305,10	0,782
305,37	0,820
305,64	0,814
305,90	0,831
306,17	0,813
306,44	0,785
306,70	0,839
306,97	0,805
307,24	0,826
307,50	0,831
307,77	0,759
308,04	0,799
308,30	0,791
308,57	0,793
308,84	0,799
309,10	0,809
309,37	0,807
309,64	0,786
309,90	0,807
310,17	0,805
310,44	0,781
310,70	0,765
310,97	0,776
311,24	0,787
311,50	0,803
311,77	0,776
312,04	0,778
312,30	0,759
312,57	0,768
312,84	0,776
313,10	0,778
313,37	0,757
313,63	0,770
313,90	0,782
314,17	0,771
314,43	0,755
314,70	0,759
314,97	0,759
315,23	0,771
315,50	0,768
315,77	0,768
316,03	0,741
316,30	0,751
316,57	0,737
316,83	0,726
317,10	0,754
317,36	0,737
317,63	0,742
317,90	0,724
318,16	0,736
318,43	0,746
318,70	0,746
318,96	0,754
319,23	0,731
319,50	0,726
319,76	0,738
320,03	0,738
320,29	0,732
320,56	0,730
320,83	0,716
321,09	0,714
321,36	0,727
321,63	0,715
321,89	0,705
322,16	0,699
322,42	0,706
322,69	0,701
322,96	0,712
323,22	0,704
323,49	0,695
323,76	0,696
324,02	0,705
324,29	0,706
324,55	0,704
324,82	0,709
325,09	0,700
325,35	0,706
325,62	0,701
325,88	0,700
326,15	0,697
326,42	0,699
326,68	0,688
326,95	0,683
327,21	0,689
327,48	0,689
327,75	0,690
328,01	0,690
328,28	0,685
328,55	0,686
328,81	0,690
329,08	0,677
329,34	0,682
329,61	0,687
329,88	0,684
330,14	0,685
330,41	0,677
330,67	0,679
330,94	0,681
331,21	0,678
331,47	0,672
331,74	0,672
332,00	0,662
332,27	0,664
332,53	0,659
332,80	0,661
333,07	0,668
333,33	0,662
333,60	0,664
333,86	0,661
334,13	0,662
334,40	0,660
334,66	0,655
334,93	0,652
335,19	0,661
335,46	0,653
335,73	0,655
335,99	0,649
336,26	0,649
336,52	0,646
336,79	0,643
337,05	0,643
337,32	0,652
337,59	0,643
337,85	0,632
338,12	0,635
338,38	0,640
338,65	0,643
338,91	0,635
339,18	0,638
339,45	0,629
339,71	0,626
339,98	0,626
340,24	0,623
340,51	0,617
340,77	0,623
341,04	0,626
341,31	0,620
341,57	0,618
341,84	0,616
342,10	0,621
342,37	0,628
342,63	0,625
342,90	0,614
343,17	0,616
343,43	0,616
343,70	0,611
343,96	0,610
344,23	0,606
344,49	0,600
344,76	0,603
345,02	0,608
345,29	0,603
345,56	0,602
345,82	0,605
346,09	0,606
346,35	0,599
346,62	0,599
346,88	0,602
347,15	0,590
347,41	0,599
347,68	0,591
347,94	0,590
348,21	0,589
348,48	0,585
348,74	0,589
349,01	0,586
349,27	0,583
349,54	0,582
349,80	0,589
350,07	0,586
350,33	0,587
350,60	0,581
350,86	0,581
351,13	0,579
351,39	0,579
351,66	0,577
351,93	0,572
352,19	0,571
352,46	0,572
352,72	0,572
352,99	0,572
353,25	0,567
353,52	0,563
353,78	0,562
354,05	0,564
354,31	0,569
354,58	0,571
354,84	0,565
355,11	0,564
355,37	0,564
355,64	0,564
355,90	0,560
356,17	0,559
356,43	0,554
356,70	0,551
356,97	0,554
357,23	0,551
357,50	0,549
357,76	0,548
358,03	0,549
358,29	0,550
358,56	0,547
358,82	0,544
359,09	0,541
359,35	0,542
359,62	0,542
359,88	0,540
360,15	0,543
360,41	0,538
360,68	0,538
360,94	0,539
361,21	0,538
361,47	0,534
361,74	0,532
362,00	0,531
362,27	0,527
362,53	0,526
362,80	0,529
363,06	0,524
363,33	0,527
363,59	0,528
363,86	0,528
364,12	0,530
364,39	0,525
364,65	0,518
364,92	0,520
365,18	0,524
365,45	0,521
365,71	0,519
365,98	0,522
366,24	0,515
366,51	0,515
366,77	0,513
367,04	0,510
367,30	0,512
367,57	0,512
367,83	0,512
368,10	0,510
368,36	0,514
368,63	0,508
368,89	0,513
369,15	0,509
369,42	0,513
369,68	0,512
369,95	0,509
370,21	0,505
370,48	0,505
370,74	0,499
371,01	0,502
371,27	0,497
371,54	0,492
371,80	0,493
372,07	0,493
372,33	0,493
372,60	0,491
372,86	0,488
373,13	0,486
373,39	0,488
373,66	0,487
373,92	0,489
374,18	0,488
374,45	0,488
374,71	0,491
374,98	0,487
375,24	0,488
375,51	0,485
375,77	0,485
376,04	0,480
376,30	0,478
376,57	0,479
376,83	0,480
377,10	0,481
377,36	0,481
377,62	0,474
377,89	0,477
378,15	0,474
378,42	0,471
378,68	0,473
378,95	0,474
379,21	0,467
379,48	0,468
379,74	0,467
380,00	0,468
380,27	0,468
380,53	0,464
380,80	0,467
381,06	0,466
381,33	0,466
381,59	0,463
381,86	0,461
382,12	0,463
382,38	0,462
382,65	0,461
382,91	0,460
383,18	0,461
383,44	0,457
383,71	0,459
383,97	0,459
384,24	0,458
384,50	0,455
384,76	0,457
385,03	0,454
385,29	0,453
385,56	0,452
385,82	0,449
386,09	0,447
386,35	0,448
386,61	0,445
386,88	0,444
387,14	0,447
387,41	0,448
387,67	0,444
387,94	0,444
388,20	0,444
388,46	0,445
388,73	0,442
388,99	0,443
389,26	0,443
389,52	0,439
389,78	0,441
390,05	0,441
390,31	0,441
390,58	0,438
390,84	0,435
391,11	0,437
391,37	0,433
391,63	0,437
391,90	0,436
392,16	0,436
392,43	0,433
392,69	0,437
392,95	0,433
393,22	0,430
393,48	0,431
393,75	0,427
394,01	0,426
394,27	0,426
394,54	0,421
394,80	0,424
395,07	0,423
395,33	0,420
395,59	0,420
395,86	0,421
396,12	0,421
396,39	0,421
396,65	0,421
396,91	0,419
397,18	0,419
397,44	0,417
397,71	0,414
397,97	0,414
398,23	0,415
398,50	0,411
398,76	0,411
399,03	0,413
399,29	0,415
399,55	0,414
399,82	0,414
400,08	0,413
400,34	0,413
400,61	0,410
400,87	0,409
401,14	0,409
401,40	0,407
401,66	0,408
401,93	0,408
402,19	0,409
402,46	0,409
402,72	0,408
402,98	0,407
403,25	0,406
403,51	0,406
403,77	0,404
404,04	0,403
404,30	0,400
404,57	0,401
404,83	0,399
405,09	0,396
405,36	0,396
405,62	0,395
405,88	0,392
406,15	0,394
406,41	0,392
406,67	0,392
406,94	0,391
407,20	0,393
407,47	0,392
407,73	0,389
407,99	0,393
408,26	0,392
408,52	0,390
408,78	0,389
409,05	0,388
409,31	0,385
409,57	0,387
409,84	0,386
410,10	0,385
410,37	0,386
410,63	0,386
410,89	0,386
411,16	0,384
411,42	0,384
411,68	0,381
411,95	0,379
412,21	0,378
412,47	0,378
412,74	0,377
413,00	0,379
413,26	0,377
413,53	0,375
413,79	0,376
414,05	0,372
414,32	0,375
414,58	0,374
414,84	0,372
415,11	0,372
415,37	0,372
415,63	0,373
415,90	0,370
416,16	0,371
416,42	0,371
416,69	0,371
416,95	0,371
417,21	0,372
417,48	0,372
417,74	0,372
418,00	0,371
418,27	0,370
418,53	0,368
418,79	0,365
419,06	0,366
419,32	0,365
419,58	0,363
419,85	0,366
420,11	0,365
420,37	0,367
420,64	0,363
420,90	0,364
421,16	0,365
421,43	0,363
421,69	0,363
421,95	0,361
422,22	0,359
422,48	0,360
422,74	0,359
423,01	0,359
423,27	0,359
423,53	0,356
423,79	0,358
424,06	0,357
424,32	0,356
424,58	0,356
424,85	0,352
425,11	0,352
425,37	0,352
425,64	0,351
425,90	0,349
426,16	0,348
426,43	0,348
426,69	0,349
426,95	0,350
427,21	0,351
427,48	0,349
427,74	0,351
428,00	0,351
428,27	0,348
428,53	0,347
428,79	0,347
429,06	0,347
429,32	0,344
429,58	0,343
429,84	0,342
430,11	0,343
430,37	0,341
430,63	0,343
430,90	0,341
431,16	0,339
431,42	0,341
431,68	0,342
431,95	0,340
432,21	0,338
432,47	0,336
432,74	0,339
433,00	0,339
433,26	0,335
433,52	0,335
433,79	0,333
434,05	0,335
434,31	0,335
434,58	0,332
434,84	0,330
435,10	0,330
435,36	0,332
435,63	0,330
435,89	0,327
436,15	0,328
436,41	0,329
436,68	0,328
436,94	0,327
437,20	0,326
437,47	0,330
437,73	0,330
437,99	0,326
438,25	0,325
438,52	0,323
438,78	0,325
439,04	0,324
439,30	0,322
439,57	0,323
439,83	0,319
440,09	0,317
440,35	0,317
440,62	0,318
440,88	0,318
441,14	0,318
441,41	0,321
441,67	0,318
441,93	0,316
442,19	0,321
442,46	0,319
442,72	0,318
442,98	0,317
443,24	0,316
443,51	0,315
443,77	0,319
444,03	0,317
444,29	0,317
444,56	0,313
444,82	0,313
445,08	0,314
445,34	0,316
445,61	0,314
445,87	0,313
446,13	0,312
446,39	0,311
446,65	0,312
446,92	0,311
447,18	0,309
447,44	0,310
447,70	0,311
447,97	0,310
448,23	0,311
448,49	0,309
448,75	0,310
449,02	0,309
449,28	0,308
449,54	0,306
449,80	0,307
450,07	0,305
450,33	0,305
450,59	0,304
450,85	0,305
451,11	0,307
451,38	0,307
451,64	0,305
451,90	0,306
452,16	0,305
452,43	0,304
452,69	0,304
452,95	0,303
453,21	0,304
453,47	0,304
453,74	0,304
454,00	0,303
454,26	0,302
454,52	0,301
454,79	0,301
455,05	0,300
455,31	0,298
455,57	0,297
455,83	0,298
456,10	0,298
456,36	0,297
456,62	0,297
456,88	0,297
457,14	0,298
457,41	0,299
457,67	0,297
457,93	0,296
458,19	0,297
458,45	0,295
458,72	0,296
458,98	0,295
459,24	0,293
459,50	0,294
459,76	0,294
460,03	0,293
460,29	0,292
460,55	0,291
460,81	0,291
461,07	0,291
461,34	0,290
461,60	0,289
461,86	0,289
462,12	0,289
462,38	0,288
462,65	0,287
462,91	0,286
463,17	0,286
463,43	0,285
463,69	0,286
463,96	0,286
464,22	0,284
464,48	0,283
464,74	0,283
465,00	0,283
465,26	0,282
465,53	0,282
465,79	0,283
466,05	0,283
466,31	0,284
466,57	0,283
466,84	0,282
467,10	0,281
467,36	0,279
467,62	0,279
467,88	0,276
468,14	0,276
468,41	0,275
468,67	0,275
468,93	0,276
469,19	0,277
469,45	0,277
469,71	0,277
469,98	0,278
470,24	0,277
470,50	0,277
470,76	0,275
471,02	0,275
471,28	0,274
471,55	0,274
471,81	0,273
472,07	0,273
472,33	0,272
472,59	0,272
472,85	0,273
473,12	0,272
473,38	0,271
473,64	0,270
473,90	0,270
474,16	0,269
474,42	0,268
474,68	0,268
474,95	0,269
475,21	0,268
475,47	0,269
475,73	0,268
475,99	0,268
476,25	0,268
476,52	0,266
476,78	0,266
477,04	0,265
477,30	0,265
477,56	0,264
477,82	0,263
478,08	0,263
478,35	0,263
478,61	0,263
478,87	0,262
479,13	0,262
479,39	0,261
479,65	0,261
479,91	0,260
480,17	0,260
480,44	0,260
480,70	0,260
480,96	0,260
481,22	0,260
481,48	0,260
481,74	0,260
482,00	0,260
482,27	0,259
482,53	0,259
482,79	0,258
483,05	0,257
483,31	0,256
483,57	0,256
483,83	0,255
484,09	0,255
484,36	0,254
484,62	0,255
484,88	0,254
485,14	0,254
485,40	0,254
485,66	0,254
485,92	0,253
486,18	0,253
486,44	0,252
486,71	0,251
486,97	0,251
487,23	0,249
487,49	0,249
487,75	0,248
488,01	0,248
488,27	0,248
488,53	0,248
488,79	0,247
489,06	0,248
489,32	0,247
489,58	0,247
489,84	0,246
490,10	0,246
490,36	0,246
490,62	0,246
490,88	0,246
491,14	0,245
491,40	0,245
491,67	0,245
491,93	0,245
492,19	0,244
492,45	0,244
492,71	0,244
492,97	0,245
493,23	0,245
493,49	0,245
493,75	0,245
494,01	0,244
494,28	0,244
494,54	0,243
494,80	0,243
495,06	0,242
495,32	0,242
495,58	0,242
495,84	0,242
496,10	0,242
496,36	0,243
496,62	0,243
496,88	0,242
497,14	0,240
497,41	0,239
497,67	0,240
497,93	0,239
498,19	0,239
498,45	0,239
498,71	0,238
498,97	0,239
499,23	0,239
499,49	0,237
499,75	0,237
500,01	0,236
500,27	0,236
500,53	0,236
500,80	0,236
501,06	0,235
501,32	0,235
501,58	0,235
501,84	0,235
502,10	0,234
502,36	0,234
502,62	0,234
502,88	0,233
503,14	0,233
503,40	0,233
503,66	0,233
503,92	0,233
504,18	0,232
504,44	0,232
504,70	0,232
504,97	0,231
505,23	0,230
505,49	0,230
505,75	0,229
506,01	0,229
506,27	0,229
506,53	0,229
506,79	0,228
507,05	0,229
507,31	0,228
507,57	0,228
507,83	0,228
508,09	0,228
508,35	0,228
508,61	0,228
508,87	0,228
509,13	0,228
509,39	0,227
509,65	0,227
509,91	0,227
510,17	0,226
510,43	0,224
510,70	0,225
510,96	0,225
511,22	0,225
511,48	0,225
511,74	0,225
512,00	0,225
512,26	0,225
512,52	0,224
512,78	0,223
513,04	0,222
513,30	0,221
513,56	0,221
513,82	0,221
514,08	0,220
514,34	0,221
514,60	0,221
514,86	0,222
515,12	0,221
515,38	0,221
515,64	0,221
515,90	0,220
516,16	0,219
516,42	0,218
516,68	0,217
516,94	0,217
517,20	0,217
517,46	0,216
517,72	0,217
517,98	0,217
518,24	0,217
518,50	0,217
518,76	0,216
519,02	0,216
519,28	0,215
519,54	0,214
519,80	0,214
520,06	0,213
520,32	0,213
520,58	0,213
520,84	0,212
521,10	0,212
521,36	0,212
521,62	0,212
521,88	0,212
522,14	0,213
522,40	0,213
522,66	0,213
522,92	0,213
523,18	0,213
523,44	0,212
523,70	0,211
523,96	0,211
524,22	0,210
524,48	0,211
524,74	0,211
525,00	0,210
525,26	0,209
525,52	0,209
525,78	0,209
526,04	0,210
526,30	0,209
526,56	0,207
526,82	0,207
527,08	0,208
527,34	0,208
527,60	0,207
527,86	0,207
528,12	0,206
528,38	0,207
528,64	0,207
528,90	0,207
529,16	0,207
529,42	0,206
529,68	0,206
529,94	0,206
530,20	0,205
530,46	0,205
530,72	0,205
530,98	0,204
531,24	0,204
531,50	0,204
531,76	0,203
532,02	0,203
532,28	0,202
532,54	0,202
532,80	0,201
533,06	0,201
533,32	0,201
533,58	0,201
533,84	0,201
534,10	0,201
534,35	0,200
534,61	0,200
534,87	0,200
535,13	0,200
535,39	0,199
535,65	0,200
535,91	0,199
536,17	0,199
536,43	0,199
536,69	0,199
536,95	0,199
537,21	0,199
537,47	0,198
537,73	0,198
537,99	0,198
538,25	0,198
538,51	0,198
538,77	0,198
539,03	0,197
539,29	0,197
539,55	0,197
539,80	0,197
540,06	0,197
540,32	0,196
540,58	0,195
540,84	0,196
541,10	0,196
541,36	0,196
541,62	0,196
541,88	0,195
542,14	0,194
542,40	0,195
542,66	0,195
542,92	0,194
543,18	0,195
543,44	0,194
543,70	0,195
543,95	0,194
544,21	0,193
544,47	0,194
544,73	0,193
544,99	0,193
545,25	0,192
545,51	0,192
545,77	0,192
546,03	0,193
546,29	0,192
546,55	0,191
546,81	0,190
547,07	0,190
547,32	0,190
547,58	0,190
547,84	0,190
548,10	0,190
548,36	0,189
548,62	0,188
548,88	0,189
549,14	0,188
549,40	0,187
549,66	0,187
549,92	0,187
550,18	0,186
550,43	0,187
550,69	0,187
550,95	0,188
551,21	0,188
551,47	0,187
551,73	0,187
551,99	0,187
552,25	0,186
552,51	0,187
552,77	0,186
553,03	0,186
553,28	0,185
553,54	0,184
553,80	0,184
554,06	0,184
554,32	0,183
554,58	0,183
554,84	0,183
555,10	0,184
555,36	0,184
555,61	0,185
555,87	0,184
556,13	0,184
556,39	0,183
556,65	0,183
556,91	0,182
557,17	0,182
557,43	0,181
557,69	0,181
557,94	0,181
558,20	0,182
558,46	0,182
558,72	0,181
558,98	0,181
559,24	0,182
559,50	0,182
559,76	0,182
560,02	0,182
560,27	0,181
560,53	0,181
560,79	0,181
561,05	0,180
561,31	0,179
561,57	0,179
561,83	0,179
562,09	0,180
562,34	0,180
562,60	0,179
562,86	0,178
563,12	0,178
563,38	0,177
563,64	0,177
563,90	0,177
564,15	0,177
564,41	0,176
564,67	0,176
564,93	0,176
565,19	0,175
565,45	0,174
565,71	0,174
565,97	0,173
566,22	0,173
566,48	0,173
566,74	0,173
567,00	0,174
567,26	0,174
567,52	0,175
567,78	0,175
568,03	0,174
568,29	0,174
568,55	0,173
568,81	0,173
569,07	0,173
569,33	0,172
569,58	0,172
569,84	0,171
570,10	0,171
570,36	0,170
570,62	0,169
570,88	0,170
571,14	0,170
571,39	0,170
571,65	0,170
571,91	0,170
572,17	0,170
572,43	0,171
572,69	0,171
572,94	0,170
573,20	0,170
573,46	0,170
573,72	0,169
573,98	0,169
574,24	0,169
574,49	0,168
574,75	0,168
575,01	0,168
575,27	0,167
575,53	0,167
575,79	0,166
576,04	0,165
576,30	0,166
576,56	0,166
576,82	0,165
577,08	0,166
577,33	0,166
577,59	0,166
577,85	0,166
578,11	0,165
578,37	0,165
578,63	0,165
578,88	0,166
579,14	0,165
579,40	0,166
579,66	0,165
579,92	0,164
580,17	0,165
580,43	0,164
580,69	0,164
580,95	0,164
581,21	0,164
581,47	0,164
581,72	0,165
581,98	0,165
582,24	0,165
582,50	0,164
582,76	0,164
583,01	0,164
583,27	0,164
583,53	0,163
583,79	0,163
584,05	0,163
584,30	0,162
584,56	0,162
584,82	0,161
585,08	0,161
585,34	0,161
585,59	0,160
585,85	0,160
586,11	0,161
586,37	0,161
586,63	0,161
586,88	0,161
587,14	0,160
587,40	0,160
587,66	0,160
587,91	0,159
588,17	0,159
588,43	0,159
588,69	0,158
588,95	0,159
589,20	0,159
589,46	0,159
589,72	0,159
589,98	0,159
590,24	0,158
590,49	0,157
590,75	0,157
591,01	0,156
591,27	0,156
591,52	0,155
591,78	0,156
592,04	0,155
592,30	0,156
592,55	0,156
592,81	0,156
593,07	0,156
593,33	0,155
593,59	0,155
593,84	0,156
594,10	0,155
594,36	0,155
594,62	0,155
594,87	0,155
595,13	0,154
595,39	0,154
595,65	0,154
595,90	0,153
596,16	0,153
596,42	0,153
596,68	0,153
596,93	0,153
597,19	0,152
597,45	0,152
597,71	0,152
597,97	0,151
598,22	0,151
598,48	0,152
598,74	0,152
599,00	0,151
599,25	0,152
599,51	0,152
599,77	0,152
600,03	0,152
600,28	0,151
600,54	0,151
600,80	0,151
601,05	0,151
601,31	0,150
601,57	0,150
601,83	0,151
602,08	0,151
602,34	0,151
602,60	0,150
602,86	0,150
603,11	0,149
603,37	0,149
603,63	0,148
603,89	0,148
604,14	0,148
604,40	0,148
604,66	0,148
604,92	0,148
605,17	0,147
605,43	0,148
605,69	0,147
605,94	0,146
606,20	0,146
606,46	0,146
606,72	0,145
606,97	0,146
607,23	0,145
607,49	0,145
607,75	0,146
608,00	0,145
608,26	0,145
608,52	0,145
608,77	0,145
609,03	0,144
609,29	0,144
609,55	0,143
609,80	0,143
610,06	0,144
610,32	0,143
610,57	0,144
610,83	0,144
611,09	0,143
611,35	0,144
611,60	0,144
611,86	0,143
612,12	0,143
612,37	0,143
612,63	0,143
612,89	0,143
613,15	0,143
613,40	0,143
613,66	0,143
613,92	0,143
614,17	0,143
614,43	0,144
614,69	0,143
614,94	0,143
615,20	0,143
615,46	0,143
615,72	0,142
615,97	0,142
616,23	0,141
616,49	0,141
616,74	0,142
617,00	0,142
617,26	0,142
617,51	0,142
617,77	0,142
618,03	0,142
618,28	0,141
618,54	0,140
618,80	0,139
619,05	0,140
619,31	0,139
619,57	0,139
619,83	0,139
620,08	0,139
620,34	0,138
620,60	0,139
620,85	0,138
621,11	0,138
621,37	0,138
621,62	0,139
621,88	0,139
622,14	0,139
622,39	0,139
622,65	0,140
622,91	0,139
623,16	0,139
623,42	0,139
623,68	0,139
623,93	0,139
624,19	0,138
624,45	0,137
624,70	0,138
624,96	0,138
625,22	0,137
625,47	0,137
625,73	0,137
625,99	0,136
626,24	0,137
626,50	0,137
626,76	0,137
627,01	0,137
627,27	0,136
627,53	0,136
627,78	0,135
628,04	0,135
628,30	0,135
628,55	0,135
628,81	0,135
629,07	0,135
629,32	0,135
629,58	0,135
629,83	0,135
630,09	0,134
630,35	0,134
630,60	0,134
630,86	0,133
631,12	0,133
631,37	0,134
631,63	0,133
631,89	0,133
632,14	0,133
632,40	0,133
632,66	0,133
632,91	0,133
633,17	0,132
633,42	0,132
633,68	0,132
633,94	0,132
634,19	0,132
634,45	0,132
634,71	0,132
634,96	0,131
635,22	0,132
635,48	0,131
635,73	0,131
635,99	0,131
636,24	0,131
636,50	0,130
636,76	0,130
637,01	0,129
637,27	0,129
637,53	0,129
637,78	0,128
638,04	0,128
638,29	0,128
638,55	0,128
638,81	0,127
639,06	0,127
639,32	0,127
639,57	0,128
639,83	0,128
640,09	0,128
640,34	0,129
640,60	0,129
640,86	0,129
641,11	0,129
641,37	0,128
641,62	0,128
641,88	0,128
642,14	0,128
642,39	0,128
642,65	0,128
642,90	0,127
643,16	0,127
643,42	0,126
643,67	0,126
643,93	0,126
644,18	0,125
644,44	0,124
644,70	0,125
644,95	0,124
645,21	0,125
645,46	0,125
645,72	0,125
645,98	0,125
646,23	0,125
646,49	0,125
646,74	0,125
647,00	0,125
647,26	0,125
647,51	0,124
647,77	0,125
648,02	0,124
648,28	0,124
648,54	0,124
648,79	0,123
649,05	0,123
649,30	0,123
649,56	0,123
649,81	0,123
650,07	0,123
650,33	0,123
650,58	0,123
650,84	0,123
651,09	0,123
651,35	0,123
651,60	0,123
651,86	0,123
652,12	0,123
652,37	0,123
652,63	0,123
652,88	0,123
653,14	0,123
653,39	0,123
653,65	0,122
653,91	0,123
654,16	0,123
654,42	0,123
654,67	0,123
654,93	0,122
655,18	0,122
655,44	0,122
655,70	0,122
655,95	0,122
656,21	0,122
656,46	0,122
656,72	0,123
656,97	0,122
657,23	0,122
657,49	0,121
657,74	0,121
658,00	0,120
658,25	0,120
658,51	0,119
658,76	0,119
659,02	0,118
659,27	0,118
659,53	0,118
659,78	0,117
660,04	0,117
660,30	0,118
660,55	0,117
660,81	0,118
661,06	0,118
661,32	0,118
661,57	0,118
661,83	0,119
662,08	0,118
662,34	0,118
662,59	0,118
662,85	0,118
663,11	0,118
663,36	0,117
663,62	0,117
663,87	0,117
664,13	0,117
664,38	0,118
664,64	0,117
664,89	0,118
665,15	0,117
665,40	0,117
665,66	0,116
665,91	0,116
666,17	0,116
666,42	0,116
666,68	0,115
666,93	0,116
667,19	0,115
667,45	0,115
667,70	0,115
667,96	0,115
668,21	0,115
668,47	0,115
668,72	0,115
668,98	0,114
669,23	0,115
669,49	0,114
669,74	0,114
670,00	0,114
670,25	0,114
670,51	0,114
670,76	0,114
671,02	0,114
671,27	0,114
671,53	0,114
671,78	0,114
672,04	0,114
672,29	0,114
672,55	0,115
672,80	0,114
673,06	0,115
673,31	0,115
673,57	0,115
673,82	0,115
674,08	0,115
674,33	0,114
674,59	0,114
674,84	0,113
675,10	0,113
675,35	0,113
675,61	0,113
675,86	0,112
676,12	0,112
676,37	0,112
676,63	0,112
676,88	0,112
677,14	0,112
677,39	0,113
677,65	0,113
677,90	0,113
678,16	0,112
678,41	0,112
678,67	0,112
678,92	0,111
679,18	0,111
679,43	0,111
679,69	0,111
679,94	0,111
680,20	0,111
680,45	0,110
680,71	0,110
680,96	0,110
681,21	0,110
681,47	0,111
681,72	0,111
681,98	0,111
682,23	0,111
682,49	0,111
682,74	0,110
683,00	0,110
683,25	0,109
683,51	0,108
683,76	0,109
684,02	0,109
684,27	0,109
684,53	0,109
684,78	0,108
685,04	0,108
685,29	0,108
685,54	0,109
685,80	0,109
686,05	0,109
686,31	0,109
686,56	0,109
686,82	0,108
687,07	0,108
687,33	0,107
687,58	0,107
687,84	0,106
688,09	0,106
688,34	0,106
688,60	0,106
688,85	0,106
689,11	0,106
689,36	0,106
689,62	0,106
689,87	0,106
690,13	0,106
690,38	0,107
690,64	0,107
690,89	0,107
691,14	0,106
691,40	0,106
691,65	0,106
691,91	0,105
692,16	0,105
692,42	0,105
692,67	0,104
692,92	0,104
693,18	0,104
693,43	0,104
693,69	0,104
693,94	0,104
694,20	0,105
694,45	0,105
694,71	0,104
694,96	0,104
695,21	0,105
695,47	0,105
695,72	0,105
695,98	0,104
696,23	0,104
696,48	0,104
696,74	0,104
696,99	0,105
697,25	0,104
697,50	0,104
697,76	0,104
698,01	0,104
698,26	0,103
698,52	0,103
698,77	0,103
699,03	0,103
699,28	0,103
699,54	0,103
699,79	0,103
700,04	0,103
700,30	0,103
700,55	0,103
700,81	0,102
701,06	0,102
701,31	0,102
701,57	0,102
701,82	0,102
702,08	0,102
702,33	0,101
702,58	0,101
702,84	0,101
703,09	0,101
703,35	0,101
703,60	0,101
703,85	0,101
704,11	0,101
704,36	0,101
704,62	0,101
704,87	0,102
705,12	0,102
705,38	0,102
705,63	0,101
705,89	0,101
706,14	0,101
706,39	0,101
706,65	0,100
706,90	0,100
707,16	0,100
707,41	0,101
707,66	0,101
707,92	0,100
708,17	0,100
708,42	0,100
708,68	0,099
708,93	0,099
709,19	0,098
709,44	0,099
709,69	0,099
709,95	0,100
710,20	0,100
710,46	0,099
710,71	0,099
710,96	0,100
711,22	0,100
711,47	0,100
711,72	0,099
711,98	0,099
712,23	0,098
712,48	0,099
712,74	0,099
712,99	0,098
713,25	0,098
713,50	0,099
713,75	0,099
714,01	0,099
714,26	0,098
714,51	0,098
714,77	0,099
715,02	0,099
715,28	0,099
715,53	0,098
715,78	0,098
716,04	0,098
716,29	0,098
716,54	0,098
716,80	0,098
717,05	0,097
717,30	0,097
717,56	0,098
717,81	0,098
718,06	0,098
718,32	0,097
718,57	0,097
718,82	0,096
719,08	0,096
719,33	0,096
719,58	0,095
719,84	0,095
720,09	0,095
720,35	0,096
720,60	0,096
720,85	0,097
721,11	0,097
721,36	0,096
721,61	0,096
721,87	0,096
722,12	0,096
722,37	0,096
722,63	0,095
722,88	0,095
723,13	0,095
723,39	0,095
723,64	0,095
723,89	0,095
724,15	0,095
724,40	0,095
724,65	0,095
724,91	0,095
725,16	0,095
725,41	0,095
725,67	0,095
725,92	0,095
726,17	0,095
726,42	0,095
726,68	0,094
726,93	0,094
727,18	0,095
727,44	0,095
727,69	0,094
727,94	0,094
728,20	0,093
728,45	0,094
728,70	0,094
728,96	0,093
729,21	0,093
729,46	0,093
729,72	0,093
729,97	0,094
730,22	0,093
730,48	0,093
730,73	0,093
730,98	0,093
731,23	0,093
731,49	0,093
731,74	0,093
731,99	0,093
732,25	0,094
732,50	0,093
732,75	0,093
733,01	0,093
733,26	0,093
733,51	0,093
733,76	0,093
734,02	0,092
734,27	0,092
734,52	0,091
734,78	0,091
735,03	0,091
735,28	0,091
735,54	0,090
735,79	0,091
736,04	0,091
736,29	0,091
736,55	0,091
736,80	0,090
737,05	0,090
737,31	0,090
737,56	0,089
737,81	0,089
738,06	0,089
738,32	0,089
738,57	0,089
738,82	0,089
739,07	0,090
739,33	0,090
739,58	0,090
739,83	0,090
740,09	0,090
740,34	0,090
740,59	0,090
740,84	0,090
741,10	0,091
741,35	0,090
741,60	0,090
741,86	0,089
742,11	0,090
742,36	0,090
742,61	0,089
742,87	0,089
743,12	0,089
743,37	0,089
743,62	0,089
743,88	0,089
744,13	0,088
744,38	0,088
744,63	0,089
744,89	0,089
745,14	0,088
745,39	0,088
745,64	0,089
745,90	0,089
746,15	0,089
746,40	0,089
746,65	0,088
746,91	0,088
747,16	0,088
747,41	0,088
747,66	0,087
747,92	0,087
748,17	0,086
748,42	0,086
748,67	0,087
748,93	0,086
749,18	0,086
749,43	0,086
749,68	0,086
749,94	0,087
750,19	0,086
750,44	0,086
750,69	0,087
750,95	0,087
751,20	0,086
751,45	0,086
751,70	0,086
751,96	0,086
752,21	0,087
752,46	0,086
752,71	0,086
752,96	0,086
753,22	0,087
753,47	0,086
753,72	0,086
753,97	0,086
754,23	0,086
754,48	0,086
754,73	0,086
754,98	0,086
755,24	0,086
755,49	0,086
755,74	0,086
755,99	0,085
756,24	0,086
756,50	0,086
756,75	0,086
757,00	0,086
757,25	0,086
757,50	0,086
757,76	0,086
758,01	0,086
758,26	0,085
758,51	0,085
758,77	0,085
759,02	0,084
759,27	0,084
759,52	0,085
759,77	0,084
760,03	0,084
760,28	0,083
760,53	0,084
760,78	0,084
761,03	0,084
761,29	0,083
761,54	0,083
761,79	0,084
762,04	0,084
762,29	0,084
762,55	0,084
762,80	0,084
763,05	0,084
763,30	0,084
763,55	0,083
763,81	0,083
764,06	0,084
764,31	0,083
764,56	0,084
764,81	0,083
765,07	0,083
765,32	0,083
765,57	0,083
765,82	0,082
766,07	0,082
766,32	0,082
766,58	0,082
766,83	0,082
767,08	0,082
767,33	0,083
767,58	0,083
767,84	0,084
768,09	0,084
768,34	0,084
768,59	0,084
768,84	0,084
769,09	0,084
769,35	0,084
769,60	0,083
769,85	0,083
770,10	0,084
770,35	0,084
770,60	0,083
770,86	0,083
771,11	0,083
771,36	0,083
771,61	0,082
771,86	0,081
772,11	0,081
772,37	0,081
772,62	0,081
772,87	0,081
773,12	0,081
773,37	0,081
773,62	0,082
773,88	0,082
774,13	0,082
774,38	0,082
774,63	0,082
774,88	0,081
775,13	0,081
775,38	0,082
775,64	0,081
775,89	0,082
776,14	0,082
776,39	0,081
776,64	0,081
776,89	0,081
777,15	0,080
777,40	0,080
777,65	0,080
777,90	0,080
778,15	0,080
778,40	0,081
778,65	0,081
778,91	0,081
779,16	0,080
779,41	0,081
779,66	0,081
779,91	0,080
780,16	0,080
780,41	0,080
780,66	0,080
780,92	0,079
781,17	0,079
781,42	0,079
781,67	0,080
781,92	0,079
782,17	0,079
782,42	0,079
782,68	0,078
782,93	0,078
783,18	0,078
783,43	0,078
783,68	0,078
783,93	0,079
784,18	0,079
784,43	0,078
784,69	0,079
784,94	0,079
785,19	0,079
785,44	0,078
785,69	0,078
785,94	0,078
786,19	0,078
786,44	0,078
786,69	0,078
786,95	0,078
787,20	0,078
787,45	0,078
787,70	0,078
787,95	0,078
788,20	0,077
788,45	0,077
788,70	0,077
788,95	0,077
789,21	0,076
789,46	0,077
789,71	0,076
789,96	0,076
790,21	0,077
790,46	0,077
790,71	0,076
790,96	0,077
791,21	0,076
791,46	0,076
791,72	0,076
791,97	0,076
792,22	0,077
792,47	0,077
792,72	0,077
792,97	0,077
793,22	0,077
793,47	0,076
793,72	0,076
793,97	0,075
794,22	0,075
794,47	0,075
794,73	0,075
794,98	0,075
795,23	0,075
795,48	0,076
795,73	0,075
795,98	0,075
796,23	0,076
796,48	0,075
796,73	0,075
796,98	0,075
797,23	0,075
797,48	0,075
797,74	0,075
797,99	0,075
798,24	0,076
798,49	0,075
798,74	0,074
798,99	0,074
799,24	0,074
799,49	0,075
799,74	0,074
799,99	0,074
800,24	0,074
800,49	0,075
800,74	0,076
800,99	0,075
801,24	0,075
801,50	0,074
801,75	0,074
802,00	0,074
802,25	0,074
802,50	0,074
802,75	0,074
803,00	0,074
803,25	0,074
803,50	0,075
803,75	0,075
804,00	0,075
804,25	0,075
804,50	0,075
804,75	0,074
805,00	0,074
805,25	0,074
805,50	0,073
805,75	0,073
806,00	0,073
806,26	0,073
806,51	0,074
806,76	0,074
807,01	0,074
807,26	0,074
807,51	0,074
807,76	0,073
808,01	0,074
808,26	0,073
808,51	0,073
808,76	0,073
809,01	0,073
809,26	0,073
809,51	0,073
809,76	0,073
810,01	0,073
810,26	0,073
810,51	0,073
810,76	0,073
811,01	0,072
811,26	0,073
811,51	0,072
811,76	0,072
812,01	0,072
812,26	0,072
812,51	0,072
812,76	0,073
813,01	0,073
813,26	0,073
813,51	0,072
813,76	0,073
814,01	0,072
814,26	0,072
814,51	0,071
814,76	0,071
815,02	0,070
815,27	0,070
815,52	0,069
815,77	0,069
816,02	0,070
816,27	0,070
816,52	0,071
816,77	0,071
817,02	0,071
817,27	0,071
817,52	0,071
817,77	0,071
818,02	0,070
818,27	0,070
818,52	0,071
818,77	0,071
819,02	0,070
819,27	0,071
819,52	0,071
819,77	0,071
820,02	0,071
820,27	0,071
820,52	0,071
820,77	0,071
821,02	0,072
821,27	0,071
821,52	0,070
821,77	0,070
822,02	0,070
822,26	0,069
822,51	0,069
822,76	0,069
823,01	0,070
823,26	0,070
823,51	0,069
823,76	0,070
824,01	0,070
824,26	0,070
824,51	0,069
824,76	0,068
825,01	0,069
825,26	0,069
825,51	0,069
825,76	0,069
826,01	0,068
826,26	0,068
826,51	0,069
826,76	0,069
827,01	0,069
827,26	0,069
827,51	0,069
827,76	0,069
828,01	0,069
828,26	0,068
828,51	0,068
828,76	0,068
829,01	0,067
829,26	0,067
829,51	0,067
829,76	0,067
830,01	0,068
830,26	0,068
830,51	0,069
830,76	0,069
831,00	0,069
831,25	0,070
831,50	0,070
831,75	0,069
832,00	0,069
832,25	0,069
832,50	0,069
832,75	0,069
833,00	0,069
833,25	0,069
833,50	0,069
833,75	0,068
834,00	0,068
834,25	0,069
834,50	0,069
834,75	0,068
835,00	0,068
835,25	0,068
835,50	0,069
835,74	0,068
835,99	0,068
836,24	0,068
836,49	0,068
836,74	0,068
836,99	0,067
837,24	0,067
837,49	0,067
837,74	0,067
837,99	0,067
838,24	0,067
838,49	0,067
838,74	0,067
838,99	0,066
839,24	0,066
839,48	0,066
839,73	0,066
839,98	0,066
840,23	0,066
840,48	0,066
840,73	0,067
840,98	0,067
841,23	0,067
841,48	0,067
841,73	0,067
841,98	0,067
842,23	0,067
842,48	0,067
842,72	0,066
842,97	0,066
843,22	0,065
843,47	0,065
843,72	0,065
843,97	0,066
844,22	0,067
844,47	0,066
844,72	0,067
844,97	0,068
845,22	0,067
845,46	0,067
845,71	0,067
845,96	0,067
846,21	0,066
846,46	0,066
846,71	0,066
846,96	0,067
847,21	0,066
847,46	0,065
847,71	0,066
847,95	0,066
848,20	0,065
848,45	0,066
848,70	0,065
848,95	0,065
849,20	0,065
849,45	0,065
849,70	0,065
849,95	0,066
850,19	0,065
850,44	0,066
850,69	0,066
850,94	0,066
851,19	0,065
851,44	0,064
851,69	0,064
851,94	0,064
852,19	0,063
852,43	0,064
852,68	0,064
852,93	0,064
853,18	0,065
853,43	0,064
853,68	0,064
853,93	0,064
854,18	0,063
854,42	0,063
854,67	0,063
854,92	0,063
855,17	0,063
855,42	0,062
855,67	0,062
855,92	0,062
856,16	0,062
856,41	0,062
856,66	0,062
856,91	0,062
857,16	0,062
857,41	0,062
857,66	0,062
857,91	0,062
858,15	0,062
858,40	0,063
858,65	0,063
858,90	0,063
859,15	0,063
859,40	0,063
859,65	0,063
859,89	0,063
860,14	0,063
860,39	0,063
860,64	0,064
860,89	0,063
861,14	0,063
861,38	0,063
861,63	0,063
861,88	0,064
862,13	0,064
862,38	0,064
862,63	0,063
862,88	0,063
863,12	0,063
863,37	0,063
863,62	0,062
863,87	0,062
864,12	0,062
864,37	0,063
864,61	0,063
864,86	0,064
865,11	0,064
865,36	0,063
865,61	0,062
865,86	0,062
866,10	0,062
866,35	0,062
866,60	0,062
866,85	0,061
867,10	0,061
867,35	0,061
867,59	0,061
867,84	0,061
868,09	0,060
868,34	0,060
868,59	0,060
868,83	0,061
869,08	0,062
869,33	0,062
869,58	0,061
869,83	0,062
870,08	0,062
870,32	0,061
870,57	0,061
870,82	0,061
871,07	0,060
871,32	0,061
871,56	0,061
871,81	0,062
872,06	0,061
872,31	0,060
872,56	0,060
872,81	0,060
873,05	0,059
873,30	0,059
873,55	0,059
873,80	0,059
874,05	0,060
874,29	0,061
874,54	0,062
874,79	0,062
875,04	0,061
875,29	0,060
875,53	0,060
875,78	0,060
876,03	0,060
876,28	0,059
876,52	0,060
876,77	0,060
877,02	0,060
877,27	0,060
877,52	0,060
877,76	0,059
878,01	0,059
878,26	0,059
878,51	0,058
878,76	0,058
879,00	0,058
879,25	0,059
879,50	0,059
879,75	0,059
880,00	0,059
880,24	0,060
880,49	0,060
880,74	0,060
880,99	0,059
881,23	0,059
881,48	0,058
881,73	0,058
881,98	0,058
882,22	0,057
882,47	0,057
882,72	0,058
882,97	0,058
883,22	0,059
883,46	0,059
883,71	0,058
883,96	0,058
884,21	0,057
884,45	0,057
884,70	0,057
884,95	0,056
885,20	0,056
885,44	0,057
885,69	0,057
885,94	0,057
886,19	0,058
886,43	0,057
886,68	0,058
886,93	0,058
887,18	0,058
887,42	0,057
887,67	0,058
887,92	0,057
888,17	0,058
888,42	0,058
888,66	0,058
888,91	0,057
889,16	0,057
889,40	0,057
889,65	0,057
889,90	0,057
890,15	0,057
890,39	0,057
890,64	0,058
890,89	0,058
891,14	0,057
891,38	0,058
891,63	0,057
891,88	0,057
892,13	0,056
892,37	0,055
892,62	0,055
892,87	0,055
893,12	0,056
893,36	0,056
893,61	0,056
893,86	0,057
894,11	0,057
894,35	0,058
894,60	0,058
894,85	0,057
895,09	0,057
895,34	0,057
895,59	0,057
895,84	0,057
896,08	0,057
896,33	0,056
896,58	0,056
896,82	0,056
897,07	0,056
897,32	0,056
897,57	0,056
897,81	0,056
898,06	0,056
898,31	0,057
898,55	0,058
898,80	0,058
899,05	0,057
899,30	0,057
899,54	0,057
899,79	0,056
900,04	0,056
900,28	0,055
900,53	0,056
900,78	0,056
901,03	0,055
901,27	0,054
901,52	0,054
901,77	0,054
902,01	0,054
902,26	0,053
902,51	0,053
902,75	0,054
903,00	0,055
903,25	0,056
903,50	0,056
903,74	0,056
903,99	0,057
904,24	0,057
904,48	0,057
904,73	0,056
904,98	0,055
905,22	0,055
905,47	0,056
905,72	0,055
905,96	0,054
906,21	0,054
906,46	0,054
906,70	0,053
906,95	0,053
907,20	0,052
907,45	0,052
907,69	0,053
907,94	0,053
908,19	0,054
908,43	0,054
908,68	0,054
908,93	0,054
909,17	0,054
909,42	0,054
909,67	0,055
909,91	0,055
910,16	0,055
910,41	0,055
910,65	0,054
910,90	0,053
911,15	0,053
911,39	0,052
911,64	0,052
911,89	0,051
912,13	0,051
912,38	0,052
912,63	0,052
912,87	0,053
913,12	0,053
913,37	0,053
913,61	0,053
913,86	0,053
914,11	0,053
914,35	0,053
914,60	0,054
914,85	0,053
915,09	0,053
915,34	0,053
915,58	0,053
915,83	0,052
916,08	0,052
916,32	0,052
916,57	0,052
916,82	0,052
917,06	0,051
917,31	0,051
917,56	0,051
917,80	0,051
918,05	0,051
918,30	0,051
918,54	0,051
918,79	0,052
919,04	0,052
919,28	0,053
919,53	0,053
919,77	0,053
920,02	0,053
920,27	0,053
920,51	0,053
920,76	0,052
921,01	0,052
921,25	0,051
921,50	0,051
921,74	0,051
921,99	0,051
922,24	0,051
922,48	0,051
922,73	0,051
922,98	0,051
923,22	0,051
923,47	0,051
923,71	0,051
923,96	0,050
924,21	0,050
924,45	0,050
924,70	0,050
924,95	0,050
925,19	0,050
925,44	0,050
925,68	0,050
925,93	0,050
926,18	0,050
926,42	0,050
926,67	0,050
926,91	0,049
927,16	0,049
927,41	0,049
927,65	0,050
927,90	0,050
928,14	0,050
928,39	0,050
928,64	0,050
928,88	0,050
929,13	0,050
929,37	0,050
929,62	0,050
929,87	0,049
930,11	0,049
930,36	0,049
930,60	0,049
930,85	0,049
931,10	0,048
931,34	0,049
931,59	0,049
931,83	0,049
932,08	0,050
932,33	0,050
932,57	0,050
932,82	0,050
933,06	0,050
933,31	0,050
933,56	0,049
933,80	0,049
934,05	0,049
934,29	0,049
934,54	0,049
934,78	0,049
935,03	0,049
935,28	0,049
935,52	0,049
935,77	0,050
936,01	0,049
936,26	0,049
936,51	0,049
936,75	0,049
937,00	0,049
937,24	0,050
937,49	0,049
937,73	0,050
937,98	0,050
938,22	0,050
938,47	0,049
938,72	0,049
938,96	0,049
939,21	0,048
939,45	0,048
939,70	0,049
939,94	0,049
940,19	0,049
940,44	0,049
940,68	0,049
940,93	0,049
941,17	0,049
941,42	0,050
941,66	0,050
941,91	0,050
942,15	0,050
942,40	0,050
942,65	0,051
942,89	0,051
943,14	0,051
943,38	0,050
943,63	0,050
943,87	0,050
944,12	0,050
944,36	0,049
944,61	0,048
944,85	0,048
945,10	0,049
945,35	0,048
945,59	0,048
945,84	0,048
946,08	0,048
946,33	0,048
946,57	0,049
946,82	0,048
947,06	0,049
947,31	0,049
947,55	0,049
947,80	0,049
948,04	0,049
948,29	0,048
948,54	0,048
948,78	0,048
949,03	0,048
949,27	0,048
949,52	0,048
949,76	0,048
950,01	0,048
950,25	0,048
950,50	0,048
950,74	0,048
950,99	0,048
951,23	0,047
951,48	0,047
951,72	0,047
951,97	0,046
952,21	0,047
952,46	0,047
952,70	0,047
952,95	0,047
953,19	0,047
953,44	0,047
953,68	0,047
953,93	0,047
954,17	0,047
954,42	0,047
954,66	0,047
954,91	0,047
955,15	0,047
955,40	0,047
955,64	0,047
955,89	0,048
956,13	0,048
956,38	0,048
956,62	0,048
956,87	0,048
957,11	0,048
957,36	0,048
957,60	0,047
957,85	0,047
958,09	0,047
958,34	0,047
958,58	0,047
958,83	0,047
959,07	0,047
959,32	0,047
959,56	0,047
959,81	0,047
960,05	0,047
960,30	0,047
960,54	0,047
960,79	0,047
961,03	0,046
961,28	0,046
961,52	0,046
961,77	0,047
962,01	0,046
962,26	0,047
962,50	0,047
962,75	0,047
962,99	0,046
963,24	0,046
963,48	0,046
963,73	0,046
963,97	0,046
964,21	0,046
964,46	0,046
964,70	0,046
964,95	0,047
965,19	0,047
965,44	0,047
965,68	0,047
965,93	0,047
966,17	0,048
966,42	0,048
966,66	0,047
966,91	0,047
967,15	0,046
967,40	0,046
967,64	0,046
967,88	0,046
968,13	0,046
968,37	0,046
968,62	0,046
968,86	0,045
969,11	0,045
969,35	0,046
969,60	0,045
969,84	0,045
970,09	0,045
970,33	0,046
970,57	0,045
970,82	0,045
971,06	0,044
971,31	0,044
971,55	0,044
971,80	0,044
972,04	0,044
972,29	0,044
972,53	0,045
972,77	0,045
973,02	0,045
973,26	0,045
973,51	0,045
973,75	0,045
974,00	0,045
974,24	0,045
974,48	0,046
974,73	0,045
974,97	0,046
975,22	0,046
975,46	0,046
975,71	0,046
975,95	0,046
976,19	0,045
976,44	0,045
976,68	0,045
976,93	0,045
977,17	0,044
977,42	0,044
977,66	0,044
977,90	0,045
978,15	0,044
978,39	0,044
978,64	0,044
978,88	0,044
979,12	0,045
979,37	0,044
979,61	0,045
979,86	0,046
980,10	0,046
980,35	0,045
980,59	0,045
980,83	0,044
981,08	0,044
981,32	0,043
981,57	0,043
981,81	0,043
982,05	0,043
982,30	0,043
982,54	0,044
982,79	0,045
983,03	0,045
983,27	0,045
983,52	0,045
983,76	0,044
984,01	0,043
984,25	0,043
984,49	0,043
984,74	0,044
984,98	0,044
985,23	0,044
985,47	0,044
985,71	0,044
985,96	0,044
986,20	0,043
986,45	0,042
986,69	0,041
986,93	0,041
987,18	0,042
987,42	0,042
987,66	0,043
987,91	0,043
988,15	0,043
988,40	0,044
988,64	0,044
988,88	0,044
989,13	0,044
989,37	0,043
989,61	0,043
989,86	0,043
990,10	0,044
990,35	0,044
990,59	0,043
990,83	0,043
991,08	0,043
991,32	0,044
991,56	0,043
991,81	0,042
992,05	0,042
992,30	0,042
992,54	0,042
992,78	0,043
993,03	0,043
993,27	0,044
993,51	0,044
993,76	0,044
994,00	0,044
994,24	0,044
994,49	0,043
994,73	0,043
994,98	0,042
995,22	0,042
995,46	0,042
995,71	0,043
995,95	0,042
996,19	0,042
996,44	0,042
996,68	0,042
996,92	0,042
997,17	0,042
997,41	0,041
997,65	0,041
997,90	0,042
998,14	0,041
998,38	0,040
998,63	0,040
998,87	0,041
999,11	0,041
999,36	0,041
999,60	0,041
999,84	0,041
1000,09	0,041
1000,33	0,042
1000,57	0,040
1000,82	0,039
1001,06	0,038
1001,30	0,039
1001,55	0,039
1001,79	0,040
1002,03	0,040
1002,28	0,040
1002,52	0,041
1002,76	0,041
1003,01	0,041
1003,25	0,041
1003,49	0,040
1003,74	0,040
1003,98	0,040
1004,22	0,041
1004,47	0,041
1004,71	0,041
1004,95	0,040
1005,20	0,041
1005,44	0,041
1005,68	0,041
1005,93	0,041
1006,17	0,041
1006,41	0,040
1006,66	0,041
1006,90	0,040
1007,14	0,041
1007,38	0,040
1007,63	0,039
1007,87	0,040
1008,11	0,040
1008,36	0,040
1008,60	0,040
1008,84	0,040
1009,09	0,041
1009,33	0,041
1009,57	0,040
1009,81	0,039
1010,06	0,039
1010,30	0,039
1010,54	0,038
1010,79	0,037
1011,03	0,037
1011,27	0,038
1011,52	0,038
1011,76	0,039
1012,00	0,040
1012,24	0,041
1012,49	0,041
1012,73	0,040
1012,97	0,040
1013,22	0,039
1013,46	0,039
1013,70	0,039
1013,94	0,039
1014,19	0,040
1014,43	0,040
1014,67	0,041
1014,92	0,041
1015,16	0,041
1015,40	0,041
1015,64	0,041
1015,89	0,040
1016,13	0,040
1016,37	0,040
1016,62	0,040
1016,86	0,040
1017,10	0,041
1017,34	0,042
1017,59	0,042
1017,83	0,043
1018,07	0,042
1018,31	0,042
1018,56	0,042
1018,80	0,041
1019,04	0,040
1019,28	0,040
1019,53	0,039
1019,77	0,040
1020,01	0,040
1020,26	0,040
1020,50	0,041
1020,74	0,041
1020,98	0,041
1021,23	0,041
1021,47	0,041
1021,71	0,041
1021,95	0,041
1022,20	0,040
1022,44	0,040
1022,68	0,040
1022,92	0,041
1023,17	0,040
1023,41	0,040
1023,65	0,041
1023,89	0,040
1024,14	0,041
1024,38	0,040
1024,62	0,039
1024,86	0,039
1025,11	0,039
1025,35	0,038
1025,59	0,038
1025,83	0,039
1026,07	0,039
1026,32	0,038
1026,56	0,038
1026,80	0,039
1027,04	0,039
1027,29	0,038
1027,53	0,038
1027,77	0,037
1028,01	0,039
1028,26	0,038
1028,50	0,037
1028,74	0,037
1028,98	0,038
1029,22	0,038
1029,47	0,039
1029,71	0,040
1029,95	0,040
1030,19	0,039
1030,44	0,039
1030,68	0,039
1030,92	0,038
1031,16	0,038
1031,40	0,037
1031,65	0,038
1031,89	0,039
1032,13	0,040
1032,37	0,040
1032,62	0,041
1032,86	0,041
1033,10	0,040
1033,34	0,040
1033,58	0,040
1033,83	0,039
1034,07	0,040
1034,31	0,039
1034,55	0,039
1034,79	0,039
1035,04	0,039
1035,28	0,038
1035,52	0,039
1035,76	0,037
1036,00	0,037
1036,25	0,037
1036,49	0,038
1036,73	0,037
1036,97	0,038
1037,21	0,038
1037,46	0,039
1037,70	0,040
1037,94	0,039
1038,18	0,039
1038,42	0,040
1038,67	0,039
1038,91	0,038
1039,15	0,038
1039,39	0,039
1039,63	0,040
1039,88	0,040
1040,12	0,038
1040,36	0,038
1040,60	0,038
1040,84	0,038
1041,08	0,037
1041,33	0,036
1041,57	0,037
1041,81	0,038
1042,05	0,039
1042,29	0,039
1042,53	0,039
1042,78	0,038
1043,02	0,037
1043,26	0,038
1043,50	0,037
1043,74	0,037
1043,99	0,037
1044,23	0,036
1044,47	0,038
1044,71	0,039
1044,95	0,037
1045,19	0,039
1045,44	0,037
1045,68	0,036
1045,92	0,037
1046,16	0,037
1046,40	0,037
1046,64	0,035
1046,88	0,034
1047,13	0,034
1047,37	0,035
1047,61	0,033
1047,85	0,032
1048,09	0,031
1048,33	0,033
1048,58	0,033
1048,82	0,034
1049,06	0,033
1049,30	0,035
1049,54	0,035
1049,78	0,035
1050,02	0,035
1050,27	0,034
1050,51	0,034
1050,75	0,035
1050,99	0,034
1051,23	0,034
1051,47	0,034
1051,71	0,033
1051,96	0,034
1052,20	0,034
1052,44	0,033
1052,68	0,034
1052,92	0,034
1053,16	0,034
1053,40	0,035
1053,65	0,037
1053,89	0,038
1054,13	0,039
1054,37	0,037
1054,61	0,038
1054,85	0,038
1055,09	0,037
1055,33	0,037
1055,58	0,036
1055,82	0,035
1056,06	0,036
1056,30	0,036
1056,54	0,035
1056,78	0,035
1057,02	0,034
1057,26	0,035
1057,51	0,037
1057,75	0,036
1057,99	0,036
1058,23	0,036
1058,47	0,036
1058,71	0,038
1058,95	0,036
1059,19	0,035
1059,43	0,035
1059,68	0,036
1059,92	0,037
1060,16	0,035
1060,40	0,032
1060,64	0,033
1060,88	0,032
1061,12	0,034
1061,36	0,033
1061,60	0,033
1061,84	0,033
1062,09	0,036
1062,33	0,037
1062,57	0,037
1062,81	0,037
1063,05	0,035
1063,29	0,035
1063,53	0,037
1063,77	0,036
1064,01	0,034
1064,25	0,033
1064,50	0,032
1064,74	0,034
1064,98	0,032
1065,22	0,032
1065,46	0,029
1065,70	0,031
1065,94	0,029
1066,18	0,030
1066,42	0,028
1066,66	0,031
1066,90	0,031
1067,14	0,032
1067,39	0,032
1067,63	0,037
1067,87	0,039
1068,11	0,041
1068,35	0,040
1068,59	0,039
1068,83	0,041
1069,07	0,040
1069,31	0,038
1069,55	0,034
1069,79	0,034
1070,03	0,034
1070,27	0,036
1070,52	0,033
1070,76	0,033
1071,00	0,034
1071,24	0,034
1071,48	0,032
1071,72	0,031
1071,96	0,030
1072,20	0,031
1072,44	0,031
1072,68	0,030
1072,92	0,030
1073,16	0,031
1073,40	0,032
1073,64	0,032
1073,88	0,029
1074,12	0,027
1074,36	0,025
1074,61	0,026
1074,85	0,023
1075,09	0,023
1075,33	0,023
1075,57	0,026
1075,81	0,029
1076,05	0,028
1076,29	0,028
1076,53	0,032
1076,77	0,031
1077,01	0,032
1077,25	0,034
1077,49	0,036
1077,73	0,036
1077,97	0,037
1078,21	0,039
1078,45	0,041
1078,69	0,043
1078,93	0,039
1079,17	0,040
1079,41	0,044
1079,65	0,044
1079,89	0,041
1080,13	0,042
1080,37	0,042
1080,61	0,043
1080,86	0,043
1081,10	0,036
1081,34	0,034
1081,58	0,037
1081,82	0,030
1082,06	0,027
1082,30	0,024
1082,54	0,019
1082,78	0,023
1083,02	0,022
1083,26	0,019
1083,50	0,022
1083,74	0,024
1083,98	0,026
1084,22	0,029
1084,46	0,031
1084,70	0,036
1084,94	0,036
1085,18	0,038
1085,42	0,032
1085,66	0,035
1085,90	0,034
1086,14	0,034
1086,38	0,035
1086,62	0,038
1086,86	0,036
1087,10	0,041
1087,34	0,041
1087,58	0,041
1087,82	0,042
1088,06	0,040
1088,30	0,036
1088,54	0,033
1088,78	0,035
1089,02	0,038
1089,26	0,035
1089,50	0,035
1089,74	0,031
1089,98	0,032
1090,22	0,038
1090,46	0,039
1090,70	0,038
1090,94	0,041
1091,18	0,039
1091,42	0,038
1091,66	0,031
1091,90	0,029
1092,14	0,031
1092,38	0,029
1092,62	0,026
1092,86	0,030
1093,10	0,032
1093,34	0,043
1093,58	0,045
1093,82	0,039
1094,06	0,038
1094,30	0,039
1094,54	0,040
1094,78	0,040
1095,01	0,035
1095,25	0,033
1095,49	0,040
1095,73	0,040
1095,97	0,039
1096,21	0,036
1096,45	0,030
1096,69	0,028
1096,93	0,026
1097,17	0,026
1097,41	0,031
1097,65	0,033
1097,89	0,040
1098,13	0,043
1098,37	0,048
1098,61	0,054
1098,85	0,051
1099,09	0,046
1099,33	0,045
1099,57	0,043
1099,81	0,038
1100,05	0,036
1100,29	0,029
1100,53	0,035
1100,77	0,045
1101,00	0,042
1101,24	0,027
1101,48	0,018
1101,72	0,012
1101,96	0,008
1102,20	0,009
1102,44	0,004
1102,68	0,008
1102,92	0,022
1103,16	0,027
1103,40	0,030
1103,64	0,038
1103,88	0,040
1104,12	0,032
1104,36	0,033
1104,60	0,028
1104,84	0,032
1105,07	0,035
1105,31	0,033
1105,55	0,025
1105,79	0,034
1106,03	0,025
1106,27	0,026
1106,51	0,021
1106,75	0,011
1106,99	0,002
1107,23	0,010
1107,47	0,007
1107,71	0,013
1107,95	0,011
1108,18	0,008
1108,42	0,015
1108,66	0,026
1108,90	0,008
1109,14	0,009
1109,38	0,011
1109,62	0,018
1109,86	0,014
1110,10	0,014
1110,34	0,019
1110,58	0,028
1110,82	0,028
1111,05	0,025
1111,29	0,024
1111,53	0,033
1111,77	0,026
1112,01	0,030
1112,25	0,019
1112,49	0,023
1112,73	0,017
1112,97	0,016
1113,21	0,024
1113,45	0,041
1113,68	0,043
1113,92	0,044
1114,16	0,044
1114,40	0,050
1114,64	0,056
1114,88	0,036
1115,12	0,026
1115,36	0,028
1115,60	0,030
1115,83	0,027
1116,07	0,035
1116,31	0,023
1116,55	0,038
1116,79	0,032
1117,03	0,004
1117,27	0,001
1117,51	0,004
1117,75	0,003
1117,98	0,007
1118,22	-0,040
1118,46	-0,032
1118,70	-0,031
1118,94	-0,020
1119,18	-0,016
1119,42	-0,029
1119,66	-0,037
1119,89	0,000
1120,13	0,007
1120,37	0,006
1120,61	-0,001
1120,85	-0,022
1121,09	-0,005
1121,33	0,017
1121,57	0,000
1121,80	0,012
1122,04	-0,008
1122,28	-0,008
1122,52	0,000
1122,76	0,017
1123,00	-0,007
1123,24	-0,035
1123,47	0,115
1123,71	0,039
>>>>>End Processed Spectral Data<<<<<
