SpectraSuite Data File
++++++++++++++++++++++++++++++++++++
Date: Sun Jan 01 00:18:42 GMT-03:00 2006
User: Lavfis
Dark Spectrum Present: No
Reference Spectrum Present: No
Number of Sampled Component Spectra: 1
Spectrometers: HR4C5405
Integration Time (usec): 100000 (HR4C5405)
Spectra Averaged: 1 (HR4C5405)
Boxcar Smoothing: 0 (HR4C5405)
Correct for Electrical Dark: No (HR4C5405)
Strobe/Lamp Enabled: No (HR4C5405)
Correct for Detector Non-linearity: No (HR4C5405)
Correct for Stray Light: No (HR4C5405)
Number of Pixels in Processed Spectrum: 3648
>>>>>Begin Processed Spectral Data<<<<<
194,53	1108,00
194,80	1108,00
195,07	1108,00
195,34	1129,00
195,61	1159,00
195,88	1159,00
196,15	1159,00
196,42	1155,00
196,69	1161,00
196,96	1177,00
197,23	1173,00
197,50	1159,00
197,77	1172,00
198,04	1180,00
198,31	1174,00
198,58	1169,00
198,85	1164,00
199,12	1175,00
199,39	1170,00
199,66	1134,00
199,93	1181,00
200,20	1170,00
200,47	1164,00
200,74	1181,00
201,01	1166,00
201,28	1162,00
201,55	1161,00
201,82	1157,00
202,09	1171,00
202,36	1158,00
202,63	1157,00
202,90	1162,00
203,17	1164,00
203,44	1167,00
203,71	1177,00
203,98	1182,00
204,25	1172,00
204,52	1167,00
204,79	1150,00
205,06	1167,00
205,33	1173,00
205,60	1169,00
205,86	1161,00
206,13	1176,00
206,40	1169,00
206,67	1156,00
206,94	1160,00
207,21	1162,00
207,48	1157,00
207,75	1174,00
208,02	1177,00
208,29	1181,00
208,56	1166,00
208,83	1165,00
209,10	1163,00
209,37	1160,00
209,64	1173,00
209,91	1160,00
210,18	1179,00
210,45	1165,00
210,72	1166,00
210,99	1178,00
211,26	1182,00
211,53	1168,00
211,80	1172,00
212,07	1170,00
212,33	1179,00
212,60	1168,00
212,87	1165,00
213,14	1180,00
213,41	1183,00
213,68	1169,00
213,95	1157,00
214,22	1171,00
214,49	1157,00
214,76	1174,00
215,03	1174,00
215,30	1172,00
215,57	1189,00
215,84	1167,00
216,11	1178,00
216,38	1176,00
216,65	1173,00
216,91	1196,00
217,18	1167,00
217,45	1165,00
217,72	1164,00
217,99	1166,00
218,26	1161,00
218,53	1168,00
218,80	1168,00
219,07	1172,00
219,34	1173,00
219,61	1179,00
219,88	1178,00
220,15	1174,00
220,42	1177,00
220,68	1170,00
220,95	1165,00
221,22	1176,00
221,49	1197,00
221,76	1178,00
222,03	1161,00
222,30	1185,00
222,57	1174,00
222,84	1175,00
223,11	1185,00
223,38	1169,00
223,65	1160,00
223,92	1180,00
224,18	1171,00
224,45	1177,00
224,72	1173,00
224,99	1169,00
225,26	1170,00
225,53	1161,00
225,80	1187,00
226,07	1190,00
226,34	1181,00
226,61	1164,00
226,88	1170,00
227,14	1178,00
227,41	1161,00
227,68	1183,00
227,95	1166,00
228,22	1173,00
228,49	1176,00
228,76	1169,00
229,03	1168,00
229,30	1184,00
229,57	1180,00
229,83	1185,00
230,10	1171,00
230,37	1180,00
230,64	1166,00
230,91	1164,00
231,18	1171,00
231,45	1186,00
231,72	1188,00
231,99	1179,00
232,25	1162,00
232,52	1154,00
232,79	1167,00
233,06	1171,00
233,33	1172,00
233,60	1176,00
233,87	1170,00
234,14	1161,00
234,41	1169,00
234,67	1175,00
234,94	1171,00
235,21	1164,00
235,48	1181,00
235,75	1169,00
236,02	1171,00
236,29	1170,00
236,56	1168,00
236,82	1163,00
237,09	1180,00
237,36	1159,00
237,63	1174,00
237,90	1154,00
238,17	1183,00
238,44	1171,00
238,71	1175,00
238,97	1173,00
239,24	1171,00
239,51	1181,00
239,78	1174,00
240,05	1176,00
240,32	1192,00
240,59	1162,00
240,86	1170,00
241,12	1151,00
241,39	1180,00
241,66	1171,00
241,93	1160,00
242,20	1170,00
242,47	1185,00
242,74	1192,00
243,00	1190,00
243,27	1182,00
243,54	1189,00
243,81	1163,00
244,08	1170,00
244,35	1170,00
244,62	1171,00
244,88	1175,00
245,15	1169,00
245,42	1173,00
245,69	1173,00
245,96	1179,00
246,23	1175,00
246,50	1176,00
246,76	1174,00
247,03	1171,00
247,30	1160,00
247,57	1155,00
247,84	1181,00
248,11	1178,00
248,37	1183,00
248,64	1156,00
248,91	1187,00
249,18	1166,00
249,45	1162,00
249,72	1175,00
249,99	1172,00
250,25	1172,00
250,52	1176,00
250,79	1164,00
251,06	1184,00
251,33	1184,00
251,60	1177,00
251,86	1160,00
252,13	1160,00
252,40	1174,00
252,67	1184,00
252,94	1171,00
253,21	1173,00
253,47	1150,00
253,74	1172,00
254,01	1171,00
254,28	1175,00
254,55	1159,00
254,81	1167,00
255,08	1167,00
255,35	1180,00
255,62	1149,00
255,89	1172,00
256,16	1164,00
256,42	1188,00
256,69	1168,00
256,96	1167,00
257,23	1173,00
257,50	1160,00
257,76	1173,00
258,03	1165,00
258,30	1176,00
258,57	1161,00
258,84	1174,00
259,11	1180,00
259,37	1186,00
259,64	1169,00
259,91	1179,00
260,18	1164,00
260,45	1179,00
260,71	1182,00
260,98	1175,00
261,25	1179,00
261,52	1186,00
261,79	1169,00
262,05	1161,00
262,32	1200,00
262,59	1171,00
262,86	1165,00
263,13	1160,00
263,39	1164,00
263,66	1176,00
263,93	1172,00
264,20	1171,00
264,47	1142,00
264,73	1145,00
265,00	1172,00
265,27	1183,00
265,54	1176,00
265,81	1171,00
266,07	1181,00
266,34	1176,00
266,61	1181,00
266,88	1189,00
267,15	1195,00
267,41	1171,00
267,68	1169,00
267,95	1150,00
268,22	1166,00
268,48	1166,00
268,75	1166,00
269,02	1177,00
269,29	1163,00
269,56	1164,00
269,82	1175,00
270,09	1147,00
270,36	1150,00
270,63	1151,00
270,89	1171,00
271,16	1162,00
271,43	1162,00
271,70	1166,00
271,97	1162,00
272,23	1169,00
272,50	1155,00
272,77	1162,00
273,04	1162,00
273,30	1174,00
273,57	1186,00
273,84	1176,00
274,11	1164,00
274,37	1159,00
274,64	1199,00
274,91	1173,00
275,18	1163,00
275,45	1153,00
275,71	1157,00
275,98	1172,00
276,25	1188,00
276,52	1167,00
276,78	1165,00
277,05	1170,00
277,32	1169,00
277,59	1180,00
277,85	1174,00
278,12	1169,00
278,39	1164,00
278,66	1170,00
278,92	1164,00
279,19	1164,00
279,46	1162,00
279,73	1170,00
279,99	1162,00
280,26	1173,00
280,53	1170,00
280,80	1173,00
281,06	1172,00
281,33	1173,00
281,60	1148,00
281,87	1172,00
282,13	1164,00
282,40	1182,00
282,67	1182,00
282,94	1169,00
283,20	1163,00
283,47	1171,00
283,74	1171,00
284,01	1184,00
284,27	1168,00
284,54	1183,00
284,81	1169,00
285,07	1171,00
285,34	1175,00
285,61	1181,00
285,88	1164,00
286,14	1171,00
286,41	1164,00
286,68	1175,00
286,95	1164,00
287,21	1173,00
287,48	1166,00
287,75	1165,00
288,02	1157,00
288,28	1172,00
288,55	1167,00
288,82	1168,00
289,08	1152,00
289,35	1170,00
289,62	1185,00
289,89	1162,00
290,15	1166,00
290,42	1192,00
290,69	1164,00
290,95	1177,00
291,22	1168,00
291,49	1174,00
291,76	1172,00
292,02	1176,00
292,29	1169,00
292,56	1137,00
292,82	1170,00
293,09	1170,00
293,36	1170,00
293,63	1163,00
293,89	1154,00
294,16	1163,00
294,43	1162,00
294,69	1173,00
294,96	1168,00
295,23	1164,00
295,50	1163,00
295,76	1150,00
296,03	1177,00
296,30	1164,00
296,56	1166,00
296,83	1169,00
297,10	1163,00
297,36	1153,00
297,63	1166,00
297,90	1159,00
298,16	1164,00
298,43	1178,00
298,70	1166,00
298,97	1152,00
299,23	1171,00
299,50	1170,00
299,77	1154,00
300,03	1162,00
300,30	1180,00
300,57	1159,00
300,83	1165,00
301,10	1159,00
301,37	1158,00
301,63	1159,00
301,90	1168,00
302,17	1158,00
302,44	1178,00
302,70	1182,00
302,97	1166,00
303,24	1163,00
303,50	1146,00
303,77	1163,00
304,04	1168,00
304,30	1162,00
304,57	1153,00
304,84	1179,00
305,10	1170,00
305,37	1164,00
305,64	1161,00
305,90	1178,00
306,17	1184,00
306,44	1172,00
306,70	1161,00
306,97	1169,00
307,24	1170,00
307,50	1162,00
307,77	1160,00
308,04	1189,00
308,30	1161,00
308,57	1161,00
308,84	1170,00
309,10	1159,00
309,37	1166,00
309,64	1171,00
309,90	1163,00
310,17	1165,00
310,44	1166,00
310,70	1160,00
310,97	1155,00
311,24	1166,00
311,50	1150,00
311,77	1143,00
312,04	1180,00
312,30	1174,00
312,57	1169,00
312,84	1176,00
313,10	1167,00
313,37	1174,00
313,63	1173,00
313,90	1168,00
314,17	1178,00
314,43	1164,00
314,70	1172,00
314,97	1157,00
315,23	1173,00
315,50	1162,00
315,77	1179,00
316,03	1177,00
316,30	1178,00
316,57	1166,00
316,83	1177,00
317,10	1180,00
317,36	1163,00
317,63	1174,00
317,90	1175,00
318,16	1156,00
318,43	1167,00
318,70	1168,00
318,96	1170,00
319,23	1172,00
319,50	1172,00
319,76	1190,00
320,03	1188,00
320,29	1166,00
320,56	1176,00
320,83	1165,00
321,09	1166,00
321,36	1173,00
321,63	1166,00
321,89	1155,00
322,16	1173,00
322,42	1165,00
322,69	1176,00
322,96	1188,00
323,22	1163,00
323,49	1163,00
323,76	1175,00
324,02	1175,00
324,29	1161,00
324,55	1172,00
324,82	1158,00
325,09	1168,00
325,35	1161,00
325,62	1166,00
325,88	1163,00
326,15	1161,00
326,42	1185,00
326,68	1165,00
326,95	1178,00
327,21	1181,00
327,48	1171,00
327,75	1160,00
328,01	1149,00
328,28	1166,00
328,55	1163,00
328,81	1154,00
329,08	1177,00
329,34	1168,00
329,61	1176,00
329,88	1166,00
330,14	1178,00
330,41	1158,00
330,67	1160,00
330,94	1204,00
331,21	1183,00
331,47	1168,00
331,74	1167,00
332,00	1157,00
332,27	1165,00
332,53	1157,00
332,80	1178,00
333,07	1165,00
333,33	1165,00
333,60	1170,00
333,86	1180,00
334,13	1181,00
334,40	1161,00
334,66	1166,00
334,93	1172,00
335,19	1167,00
335,46	1162,00
335,73	1159,00
335,99	1159,00
336,26	1173,00
336,52	1159,00
336,79	1173,00
337,05	1165,00
337,32	1175,00
337,59	1163,00
337,85	1162,00
338,12	1159,00
338,38	1172,00
338,65	1163,00
338,91	1178,00
339,18	1202,00
339,45	1189,00
339,71	1182,00
339,98	1178,00
340,24	1171,00
340,51	1164,00
340,77	1178,00
341,04	1165,00
341,31	1185,00
341,57	1173,00
341,84	1182,00
342,10	1178,00
342,37	1180,00
342,63	1177,00
342,90	1186,00
343,17	1161,00
343,43	1168,00
343,70	1161,00
343,96	1184,00
344,23	1188,00
344,49	1181,00
344,76	1177,00
345,02	1162,00
345,29	1166,00
345,56	1188,00
345,82	1175,00
346,09	1166,00
346,35	1166,00
346,62	1165,00
346,88	1157,00
347,15	1164,00
347,41	1170,00
347,68	1174,00
347,94	1176,00
348,21	1186,00
348,48	1188,00
348,74	1176,00
349,01	1169,00
349,27	1185,00
349,54	1166,00
349,80	1169,00
350,07	1160,00
350,33	1147,00
350,60	1172,00
350,86	1169,00
351,13	1157,00
351,39	1143,00
351,66	1151,00
351,93	1172,00
352,19	1156,00
352,46	1166,00
352,72	1165,00
352,99	1173,00
353,25	1181,00
353,52	1169,00
353,78	1173,00
354,05	1178,00
354,31	1170,00
354,58	1163,00
354,84	1174,00
355,11	1171,00
355,37	1173,00
355,64	1179,00
355,90	1205,00
356,17	1164,00
356,43	1163,00
356,70	1165,00
356,97	1182,00
357,23	1190,00
357,50	1169,00
357,76	1163,00
358,03	1156,00
358,29	1169,00
358,56	1183,00
358,82	1164,00
359,09	1168,00
359,35	1166,00
359,62	1164,00
359,88	1174,00
360,15	1186,00
360,41	1173,00
360,68	1184,00
360,94	1180,00
361,21	1189,00
361,47	1184,00
361,74	1187,00
362,00	1179,00
362,27	1186,00
362,53	1197,00
362,80	1188,00
363,06	1191,00
363,33	1203,00
363,59	1196,00
363,86	1231,00
364,12	1274,00
364,39	1316,00
364,65	1365,00
364,92	1351,00
365,18	1331,00
365,45	1277,00
365,71	1237,00
365,98	1233,00
366,24	1205,00
366,51	1190,00
366,77	1182,00
367,04	1177,00
367,30	1162,00
367,57	1175,00
367,83	1173,00
368,10	1184,00
368,36	1158,00
368,63	1161,00
368,89	1158,00
369,15	1170,00
369,42	1169,00
369,68	1189,00
369,95	1177,00
370,21	1166,00
370,48	1170,00
370,74	1181,00
371,01	1173,00
371,27	1165,00
371,54	1162,00
371,80	1170,00
372,07	1172,00
372,33	1168,00
372,60	1180,00
372,86	1163,00
373,13	1164,00
373,39	1167,00
373,66	1172,00
373,92	1169,00
374,18	1167,00
374,45	1175,00
374,71	1177,00
374,98	1168,00
375,24	1186,00
375,51	1166,00
375,77	1174,00
376,04	1174,00
376,30	1167,00
376,57	1195,00
376,83	1178,00
377,10	1175,00
377,36	1184,00
377,62	1177,00
377,89	1196,00
378,15	1177,00
378,42	1155,00
378,68	1169,00
378,95	1174,00
379,21	1179,00
379,48	1183,00
379,74	1174,00
380,00	1177,00
380,27	1165,00
380,53	1178,00
380,80	1178,00
381,06	1180,00
381,33	1184,00
381,59	1169,00
381,86	1181,00
382,12	1172,00
382,38	1175,00
382,65	1179,00
382,91	1181,00
383,18	1184,00
383,44	1191,00
383,71	1175,00
383,97	1158,00
384,24	1181,00
384,50	1200,00
384,76	1177,00
385,03	1198,00
385,29	1184,00
385,56	1170,00
385,82	1184,00
386,09	1173,00
386,35	1192,00
386,61	1163,00
386,88	1167,00
387,14	1165,00
387,41	1163,00
387,67	1166,00
387,94	1170,00
388,20	1168,00
388,46	1169,00
388,73	1165,00
388,99	1175,00
389,26	1167,00
389,52	1167,00
389,78	1171,00
390,05	1173,00
390,31	1159,00
390,58	1181,00
390,84	1171,00
391,11	1188,00
391,37	1190,00
391,63	1185,00
391,90	1162,00
392,16	1170,00
392,43	1180,00
392,69	1180,00
392,95	1179,00
393,22	1164,00
393,48	1164,00
393,75	1155,00
394,01	1165,00
394,27	1167,00
394,54	1161,00
394,80	1173,00
395,07	1179,00
395,33	1168,00
395,59	1168,00
395,86	1171,00
396,12	1179,00
396,39	1170,00
396,65	1156,00
396,91	1174,00
397,18	1171,00
397,44	1169,00
397,71	1166,00
397,97	1184,00
398,23	1161,00
398,50	1154,00
398,76	1170,00
399,03	1171,00
399,29	1177,00
399,55	1175,00
399,82	1174,00
400,08	1171,00
400,34	1180,00
400,61	1176,00
400,87	1190,00
401,14	1194,00
401,40	1191,00
401,66	1222,00
401,93	1233,00
402,19	1268,00
402,46	1308,00
402,72	1321,00
402,98	1362,00
403,25	1464,00
403,51	1690,00
403,77	1936,00
404,04	2115,00
404,30	2104,00
404,57	1890,00
404,83	1571,00
405,09	1403,00
405,36	1282,00
405,62	1216,00
405,88	1211,00
406,15	1228,00
406,41	1244,00
406,67	1229,00
406,94	1258,00
407,20	1285,00
407,47	1271,00
407,73	1243,00
407,99	1218,00
408,26	1211,00
408,52	1200,00
408,78	1194,00
409,05	1204,00
409,31	1212,00
409,57	1210,00
409,84	1187,00
410,10	1212,00
410,37	1206,00
410,63	1203,00
410,89	1219,00
411,16	1217,00
411,42	1206,00
411,68	1220,00
411,95	1197,00
412,21	1217,00
412,47	1212,00
412,74	1222,00
413,00	1213,00
413,26	1209,00
413,53	1217,00
413,79	1223,00
414,05	1222,00
414,32	1220,00
414,58	1209,00
414,84	1222,00
415,11	1226,00
415,37	1208,00
415,63	1229,00
415,90	1248,00
416,16	1252,00
416,42	1235,00
416,69	1233,00
416,95	1237,00
417,21	1239,00
417,48	1221,00
417,74	1247,00
418,00	1235,00
418,27	1258,00
418,53	1252,00
418,79	1251,00
419,06	1270,00
419,32	1242,00
419,58	1259,00
419,85	1247,00
420,11	1258,00
420,37	1260,00
420,64	1272,00
420,90	1265,00
421,16	1265,00
421,43	1272,00
421,69	1268,00
421,95	1270,00
422,22	1269,00
422,48	1277,00
422,74	1286,00
423,01	1283,00
423,27	1293,00
423,53	1284,00
423,79	1296,00
424,06	1291,00
424,32	1284,00
424,58	1287,00
424,85	1290,00
425,11	1284,00
425,37	1304,00
425,64	1322,00
425,90	1299,00
426,16	1302,00
426,43	1306,00
426,69	1327,00
426,95	1333,00
427,21	1322,00
427,48	1323,00
427,74	1334,00
428,00	1339,00
428,27	1334,00
428,53	1346,00
428,79	1333,00
429,06	1358,00
429,32	1352,00
429,58	1335,00
429,84	1351,00
430,11	1346,00
430,37	1340,00
430,63	1371,00
430,90	1364,00
431,16	1363,00
431,42	1377,00
431,68	1389,00
431,95	1376,00
432,21	1411,00
432,47	1412,00
432,74	1441,00
433,00	1504,00
433,26	1619,00
433,52	1725,00
433,79	1843,00
434,05	1998,00
434,31	2258,00
434,58	2781,00
434,84	3454,00
435,10	4062,00
435,36	3991,00
435,63	3489,00
435,89	2724,00
436,15	2095,00
436,41	1726,00
436,68	1567,00
436,94	1494,00
437,20	1465,00
437,47	1443,00
437,73	1458,00
437,99	1444,00
438,25	1452,00
438,52	1461,00
438,78	1457,00
439,04	1477,00
439,30	1442,00
439,57	1440,00
439,83	1455,00
440,09	1446,00
440,35	1450,00
440,62	1450,00
440,88	1465,00
441,14	1458,00
441,41	1443,00
441,67	1479,00
441,93	1475,00
442,19	1448,00
442,46	1446,00
442,72	1455,00
442,98	1470,00
443,24	1459,00
443,51	1475,00
443,77	1480,00
444,03	1481,00
444,29	1492,00
444,56	1487,00
444,82	1495,00
445,08	1459,00
445,34	1462,00
445,61	1470,00
445,87	1493,00
446,13	1477,00
446,39	1489,00
446,65	1474,00
446,92	1500,00
447,18	1492,00
447,44	1486,00
447,70	1468,00
447,97	1486,00
448,23	1500,00
448,49	1493,00
448,75	1494,00
449,02	1505,00
449,28	1489,00
449,54	1497,00
449,80	1481,00
450,07	1492,00
450,33	1493,00
450,59	1506,00
450,85	1517,00
451,11	1501,00
451,38	1508,00
451,64	1506,00
451,90	1498,00
452,16	1509,00
452,43	1505,00
452,69	1517,00
452,95	1510,00
453,21	1521,00
453,47	1524,00
453,74	1518,00
454,00	1533,00
454,26	1520,00
454,52	1508,00
454,79	1494,00
455,05	1488,00
455,31	1515,00
455,57	1509,00
455,83	1532,00
456,10	1506,00
456,36	1518,00
456,62	1490,00
456,88	1514,00
457,14	1513,00
457,41	1522,00
457,67	1495,00
457,93	1515,00
458,19	1503,00
458,45	1498,00
458,72	1516,00
458,98	1526,00
459,24	1515,00
459,50	1521,00
459,76	1506,00
460,03	1488,00
460,29	1520,00
460,55	1525,00
460,81	1518,00
461,07	1537,00
461,34	1520,00
461,60	1528,00
461,86	1519,00
462,12	1523,00
462,38	1525,00
462,65	1515,00
462,91	1502,00
463,17	1523,00
463,43	1500,00
463,69	1506,00
463,96	1526,00
464,22	1498,00
464,48	1475,00
464,74	1514,00
465,00	1511,00
465,26	1502,00
465,53	1516,00
465,79	1514,00
466,05	1493,00
466,31	1520,00
466,57	1484,00
466,84	1517,00
467,10	1527,00
467,36	1515,00
467,62	1522,00
467,88	1509,00
468,14	1502,00
468,41	1507,00
468,67	1505,00
468,93	1515,00
469,19	1506,00
469,45	1532,00
469,71	1528,00
469,98	1527,00
470,24	1534,00
470,50	1524,00
470,76	1515,00
471,02	1537,00
471,28	1519,00
471,55	1522,00
471,81	1513,00
472,07	1712,00
472,33	1553,00
472,59	1529,00
472,85	1519,00
473,12	1517,00
473,38	1525,00
473,64	1538,00
473,90	1519,00
474,16	1527,00
474,42	1542,00
474,68	1545,00
474,95	1539,00
475,21	1504,00
475,47	1535,00
475,73	1546,00
475,99	1558,00
476,25	1551,00
476,52	1556,00
476,78	1534,00
477,04	1538,00
477,30	1552,00
477,56	1547,00
477,82	1533,00
478,08	1551,00
478,35	1575,00
478,61	1585,00
478,87	1583,00
479,13	1587,00
479,39	1565,00
479,65	1579,00
479,91	1586,00
480,17	1617,00
480,44	1614,00
480,70	1648,00
480,96	1652,00
481,22	1705,00
481,48	1710,00
481,74	1708,00
482,00	1758,00
482,27	1806,00
482,53	1843,00
482,79	1872,00
483,05	1932,00
483,31	1981,00
483,57	2021,00
483,83	2069,00
484,09	2110,00
484,36	2166,00
484,62	2231,00
484,88	2263,00
485,14	2298,00
485,40	2388,00
485,66	2410,00
485,92	2414,00
486,18	2401,00
486,44	2399,00
486,71	2374,00
486,97	2390,00
487,23	2379,00
487,49	2324,00
487,75	2321,00
488,01	2269,00
488,27	2255,00
488,53	2242,00
488,79	2219,00
489,06	2212,00
489,32	2190,00
489,58	2134,00
489,84	2143,00
490,10	2141,00
490,36	2134,00
490,62	2167,00
490,88	2136,00
491,14	2124,00
491,40	2123,00
491,67	2057,00
491,93	2036,00
492,19	2026,00
492,45	2034,00
492,71	2009,00
492,97	1980,00
493,23	1969,00
493,49	1975,00
493,75	1964,00
494,01	1946,00
494,28	1895,00
494,54	1904,00
494,80	1894,00
495,06	1879,00
495,32	1873,00
495,58	1857,00
495,84	1844,00
496,10	1843,00
496,36	1834,00
496,62	1820,00
496,88	1815,00
497,14	1800,00
497,41	1805,00
497,67	1786,00
497,93	1763,00
498,19	1774,00
498,45	1758,00
498,71	1734,00
498,97	1738,00
499,23	1728,00
499,49	1716,00
499,75	1730,00
500,01	1714,00
500,27	1709,00
500,53	1685,00
500,80	1703,00
501,06	1680,00
501,32	1698,00
501,58	1665,00
501,84	1689,00
502,10	1676,00
502,36	1676,00
502,62	1679,00
502,88	1664,00
503,14	1673,00
503,40	1682,00
503,66	1679,00
503,92	1673,00
504,18	1702,00
504,44	1688,00
504,70	1658,00
504,97	1657,00
505,23	1653,00
505,49	1677,00
505,75	1698,00
506,01	1698,00
506,27	1672,00
506,53	1676,00
506,79	1685,00
507,05	1712,00
507,31	1718,00
507,57	1719,00
507,83	1731,00
508,09	1718,00
508,35	1713,00
508,61	1738,00
508,87	1746,00
509,13	1748,00
509,39	1718,00
509,65	1744,00
509,91	1766,00
510,17	1695,00
510,43	1756,00
510,70	1755,00
510,96	1734,00
511,22	1758,00
511,48	1782,00
511,74	1778,00
512,00	1784,00
512,26	1770,00
512,52	1767,00
512,78	1785,00
513,04	1768,00
513,30	1757,00
513,56	1753,00
513,82	1765,00
514,08	1769,00
514,34	1768,00
514,60	1749,00
514,86	1757,00
515,12	1781,00
515,38	1773,00
515,64	1763,00
515,90	1738,00
516,16	1749,00
516,42	1780,00
516,68	1780,00
516,94	1745,00
517,20	1750,00
517,46	1737,00
517,72	1730,00
517,98	1767,00
518,24	1739,00
518,50	1716,00
518,76	1730,00
519,02	1736,00
519,28	1731,00
519,54	1719,00
519,80	1700,00
520,06	1688,00
520,32	1684,00
520,58	1681,00
520,84	1690,00
521,10	1703,00
521,36	1719,00
521,62	1661,00
521,88	1668,00
522,14	1691,00
522,40	1657,00
522,66	1680,00
522,92	1689,00
523,18	1656,00
523,44	1648,00
523,70	1660,00
523,96	1655,00
524,22	1655,00
524,48	1634,00
524,74	1626,00
525,00	1635,00
525,26	1657,00
525,52	1638,00
525,78	1628,00
526,04	1632,00
526,30	1621,00
526,56	1617,00
526,82	1627,00
527,08	1621,00
527,34	1616,00
527,60	1595,00
527,86	1608,00
528,12	1623,00
528,38	1609,00
528,64	1601,00
528,90	1611,00
529,16	1614,00
529,42	1611,00
529,68	1606,00
529,94	1580,00
530,20	1592,00
530,46	1597,00
530,72	1608,00
530,98	1608,00
531,24	1612,00
531,50	1616,00
531,76	1654,00
532,02	1675,00
532,28	1667,00
532,54	1692,00
532,80	1676,00
533,06	1712,00
533,32	1641,00
533,58	1656,00
533,84	1672,00
534,10	1686,00
534,35	1704,00
534,61	1712,00
534,87	1760,00
535,13	1790,00
535,39	1826,00
535,65	1901,00
535,91	1973,00
536,17	2031,00
536,43	2130,00
536,69	2210,00
536,95	2316,00
537,21	2376,00
537,47	2471,00
537,73	2585,00
537,99	2717,00
538,25	2857,00
538,51	3070,00
538,77	3404,00
539,03	3764,00
539,29	4285,00
539,55	4789,00
539,80	5382,00
540,06	6085,00
540,32	6789,00
540,58	7433,00
540,84	7762,00
541,10	7816,00
541,36	7561,00
541,62	7133,00
541,88	6738,00
542,14	6495,00
542,40	6358,00
542,66	6265,00
542,92	6288,00
543,18	6381,00
543,44	6572,00
543,70	7110,00
543,95	7740,00
544,21	8503,00
544,47	9725,00
544,73	11843,00
544,99	13909,00
545,25	14825,00
545,51	13686,00
545,77	11287,00
546,03	8651,00
546,29	7027,00
546,55	5997,00
546,81	5426,00
547,07	5110,00
547,32	4804,00
547,58	4547,00
547,84	4325,00
548,10	4097,00
548,36	3921,00
548,62	3802,00
548,88	3610,00
549,14	3453,00
549,40	3308,00
549,66	3145,00
549,92	3008,00
550,18	2860,00
550,43	2751,00
550,69	2659,00
550,95	2589,00
551,21	2490,00
551,47	2360,00
551,73	2320,00
551,99	2231,00
552,25	2177,00
552,51	2121,00
552,77	2065,00
553,03	2031,00
553,28	1993,00
553,54	1895,00
553,80	1856,00
554,06	1826,00
554,32	1776,00
554,58	1750,00
554,84	1734,00
555,10	1720,00
555,36	1674,00
555,61	1677,00
555,87	1623,00
556,13	1610,00
556,39	1619,00
556,65	1588,00
556,91	1609,00
557,17	1620,00
557,43	1593,00
557,69	1575,00
557,94	1537,00
558,20	1542,00
558,46	1539,00
558,72	1530,00
558,98	1546,00
559,24	1529,00
559,50	1524,00
559,76	1528,00
560,02	1506,00
560,27	1492,00
560,53	1505,00
560,79	1494,00
561,05	1496,00
561,31	1474,00
561,57	1491,00
561,83	1461,00
562,09	1462,00
562,34	1464,00
562,60	1454,00
562,86	1462,00
563,12	1463,00
563,38	1456,00
563,64	1448,00
563,90	1445,00
564,15	1471,00
564,41	1453,00
564,67	1467,00
564,93	1446,00
565,19	1437,00
565,45	1445,00
565,71	1448,00
565,97	1415,00
566,22	1440,00
566,48	1434,00
566,74	1440,00
567,00	1439,00
567,26	1438,00
567,52	1451,00
567,78	1431,00
568,03	1429,00
568,29	1419,00
568,55	1419,00
568,81	1431,00
569,07	1415,00
569,33	1400,00
569,58	1405,00
569,84	1412,00
570,10	1417,00
570,36	1410,00
570,62	1407,00
570,88	1411,00
571,14	1404,00
571,39	1413,00
571,65	1404,00
571,91	1411,00
572,17	1408,00
572,43	1424,00
572,69	1424,00
572,94	1412,00
573,20	1398,00
573,46	1426,00
573,72	1442,00
573,98	1446,00
574,24	1471,00
574,49	1539,00
574,75	1654,00
575,01	1789,00
575,27	2016,00
575,53	2377,00
575,79	2818,00
576,04	3109,00
576,30	2987,00
576,56	2676,00
576,82	2353,00
577,08	2195,00
577,33	2198,00
577,59	2448,00
577,85	2885,00
578,11	3187,00
578,37	3149,00
578,63	2831,00
578,88	2477,00
579,14	2272,00
579,40	2173,00
579,66	2130,00
579,92	2085,00
580,17	2025,00
580,43	2022,00
580,69	2081,00
580,95	2140,00
581,21	2195,00
581,47	2294,00
581,72	2354,00
581,98	2441,00
582,24	2524,00
582,50	2564,00
582,76	2555,00
583,01	2552,00
583,27	2567,00
583,53	2517,00
583,79	2498,00
584,05	2443,00
584,30	2419,00
584,56	2403,00
584,82	2376,00
585,08	2372,00
585,34	2425,00
585,59	2497,00
585,85	2603,00
586,11	2724,00
586,37	2787,00
586,63	2779,00
586,88	2641,00
587,14	2450,00
587,40	2243,00
587,66	2135,00
587,91	2046,00
588,17	2018,00
588,43	1961,00
588,69	1968,00
588,95	1926,00
589,20	1933,00
589,46	1937,00
589,72	1971,00
589,98	1993,00
590,24	2004,00
590,49	2038,00
590,75	2101,00
591,01	2142,00
591,27	2202,00
591,52	2269,00
591,78	2380,00
592,04	2390,00
592,30	2379,00
592,55	2336,00
592,81	2252,00
593,07	2094,00
593,33	1959,00
593,59	1898,00
593,84	1832,00
594,10	1769,00
594,36	1745,00
594,62	1726,00
594,87	1737,00
595,13	1716,00
595,39	1725,00
595,65	1726,00
595,90	1731,00
596,16	1727,00
596,42	1733,00
596,68	1742,00
596,93	1770,00
597,19	1794,00
597,45	1845,00
597,71	1900,00
597,97	1948,00
598,22	1973,00
598,48	1969,00
598,74	1979,00
599,00	1946,00
599,25	1926,00
599,51	1836,00
599,77	1764,00
600,03	1699,00
600,28	1675,00
600,54	1654,00
600,80	1605,00
601,05	1594,00
601,31	1553,00
601,57	1549,00
601,83	1532,00
602,08	1524,00
602,34	1528,00
602,60	1542,00
602,86	1569,00
603,11	1546,00
603,37	1578,00
603,63	1582,00
603,89	1585,00
604,14	1563,00
604,40	1584,00
604,66	1618,00
604,92	1602,00
605,17	1630,00
605,43	1653,00
605,69	1686,00
605,94	1744,00
606,20	1778,00
606,46	1814,00
606,72	1828,00
606,97	1917,00
607,23	2019,00
607,49	2110,00
607,75	2254,00
608,00	2410,00
608,26	2646,00
608,52	2995,00
608,77	3520,00
609,03	4215,00
609,29	5079,00
609,55	6347,00
609,80	7889,00
610,06	9347,00
610,32	10388,00
610,57	10322,00
610,83	9412,00
611,09	8103,00
611,35	6691,00
611,60	5726,00
611,86	5056,00
612,12	4645,00
612,37	4358,00
612,63	4157,00
612,89	4010,00
613,15	3901,00
613,40	3797,00
613,66	3708,00
613,92	3529,00
614,17	3350,00
614,43	3156,00
614,69	2901,00
614,94	2696,00
615,20	2549,00
615,46	2422,00
615,72	2309,00
615,97	2222,00
616,23	2147,00
616,49	2074,00
616,74	2050,00
617,00	2014,00
617,26	1997,00
617,51	1988,00
617,77	1996,00
618,03	1977,00
618,28	1971,00
618,54	1980,00
618,80	2006,00
619,05	2012,00
619,31	2080,00
619,57	2082,00
619,83	2108,00
620,08	2107,00
620,34	2088,00
620,60	2093,00
620,85	2101,00
621,11	2090,00
621,37	2077,00
621,62	2113,00
621,88	2110,00
622,14	2146,00
622,39	2163,00
622,65	2172,00
622,91	2180,00
623,16	2182,00
623,42	2197,00
623,68	2171,00
623,93	2178,00
624,19	2161,00
624,45	2169,00
624,70	2178,00
624,96	2191,00
625,22	2181,00
625,47	2137,00
625,73	2145,00
625,99	2136,00
626,24	2065,00
626,50	2075,00
626,76	2006,00
627,01	1995,00
627,27	1965,00
627,53	1965,00
627,78	1964,00
628,04	1939,00
628,30	1983,00
628,55	2020,00
628,81	2080,00
629,07	2135,00
629,32	2277,00
629,58	2356,00
629,83	2460,00
630,09	2507,00
630,35	2424,00
630,60	2248,00
630,86	2074,00
631,12	1864,00
631,37	1744,00
631,63	1621,00
631,89	1589,00
632,14	1509,00
632,40	1487,00
632,66	1461,00
632,91	1461,00
633,17	1428,00
633,42	1404,00
633,68	1420,00
633,94	1417,00
634,19	1485,00
634,45	1422,00
634,71	1396,00
634,96	1388,00
635,22	1374,00
635,48	1387,00
635,73	1378,00
635,99	1379,00
636,24	1373,00
636,50	1348,00
636,76	1342,00
637,01	1339,00
637,27	1333,00
637,53	1359,00
637,78	1348,00
638,04	1353,00
638,29	1328,00
638,55	1348,00
638,81	1346,00
639,06	1348,00
639,32	1338,00
639,57	1333,00
639,83	1335,00
640,09	1355,00
640,34	1350,00
640,60	1336,00
640,86	1353,00
641,11	1323,00
641,37	1321,00
641,62	1339,00
641,88	1374,00
642,14	1353,00
642,39	1340,00
642,65	1340,00
642,90	1332,00
643,16	1331,00
643,42	1345,00
643,67	1365,00
643,93	1344,00
644,18	1344,00
644,44	1317,00
644,70	1348,00
644,95	1350,00
645,21	1326,00
645,46	1322,00
645,72	1352,00
645,98	1347,00
646,23	1339,00
646,49	1342,00
646,74	1345,00
647,00	1337,00
647,26	1367,00
647,51	1351,00
647,77	1376,00
648,02	1373,00
648,28	1405,00
648,54	1420,00
648,79	1464,00
649,05	1504,00
649,30	1594,00
649,56	1593,00
649,81	1619,00
650,07	1555,00
650,33	1506,00
650,58	1453,00
650,84	1436,00
651,09	1430,00
651,35	1411,00
651,60	1400,00
651,86	1415,00
652,12	1407,00
652,37	1394,00
652,63	1396,00
652,88	1386,00
653,14	1367,00
653,39	1370,00
653,65	1370,00
653,91	1350,00
654,16	1354,00
654,42	1340,00
654,67	1356,00
654,93	1348,00
655,18	1361,00
655,44	1333,00
655,70	1334,00
655,95	1336,00
656,21	1361,00
656,46	1351,00
656,72	1373,00
656,97	1346,00
657,23	1344,00
657,49	1348,00
657,74	1328,00
658,00	1313,00
658,25	1314,00
658,51	1308,00
658,76	1289,00
659,02	1287,00
659,27	1307,00
659,53	1296,00
659,78	1279,00
660,04	1314,00
660,30	1311,00
660,55	1337,00
660,81	1381,00
661,06	1408,00
661,32	1432,00
661,57	1437,00
661,83	1435,00
662,08	1397,00
662,34	1355,00
662,59	1352,00
662,85	1328,00
663,11	1310,00
663,36	1311,00
663,62	1306,00
663,87	1297,00
664,13	1289,00
664,38	1307,00
664,64	1297,00
664,89	1277,00
665,15	1290,00
665,40	1289,00
665,66	1279,00
665,91	1279,00
666,17	1303,00
666,42	1287,00
666,68	1294,00
666,93	1289,00
667,19	1298,00
667,45	1285,00
667,70	1272,00
667,96	1281,00
668,21	1278,00
668,47	1300,00
668,72	1292,00
668,98	1277,00
669,23	1276,00
669,49	1266,00
669,74	1276,00
670,00	1284,00
670,25	1273,00
670,51	1277,00
670,76	1287,00
671,02	1271,00
671,27	1288,00
671,53	1260,00
671,78	1255,00
672,04	1272,00
672,29	1265,00
672,55	1257,00
672,80	1258,00
673,06	1265,00
673,31	1241,00
673,57	1253,00
673,82	1265,00
674,08	1267,00
674,33	1251,00
674,59	1250,00
674,84	1255,00
675,10	1260,00
675,35	1257,00
675,61	1250,00
675,86	1249,00
676,12	1253,00
676,37	1253,00
676,63	1245,00
676,88	1248,00
677,14	1275,00
677,39	1251,00
677,65	1252,00
677,90	1256,00
678,16	1271,00
678,41	1265,00
678,67	1275,00
678,92	1265,00
679,18	1298,00
679,43	1283,00
679,69	1284,00
679,94	1273,00
680,20	1274,00
680,45	1277,00
680,71	1270,00
680,96	1265,00
681,21	1268,00
681,47	1254,00
681,72	1252,00
681,98	1258,00
682,23	1247,00
682,49	1250,00
682,74	1274,00
683,00	1269,00
683,25	1266,00
683,51	1249,00
683,76	1247,00
684,02	1264,00
684,27	1275,00
684,53	1270,00
684,78	1280,00
685,04	1321,00
685,29	1308,00
685,54	1303,00
685,80	1340,00
686,05	1363,00
686,31	1366,00
686,56	1366,00
686,82	1360,00
687,07	1343,00
687,33	1341,00
687,58	1337,00
687,84	1312,00
688,09	1288,00
688,34	1271,00
688,60	1258,00
688,85	1243,00
689,11	1241,00
689,36	1242,00
689,62	1242,00
689,87	1250,00
690,13	1244,00
690,38	1237,00
690,64	1233,00
690,89	1226,00
691,14	1228,00
691,40	1232,00
691,65	1252,00
691,91	1259,00
692,16	1284,00
692,42	1294,00
692,67	1308,00
692,92	1330,00
693,18	1309,00
693,43	1268,00
693,69	1246,00
693,94	1209,00
694,20	1216,00
694,45	1225,00
694,71	1196,00
694,96	1214,00
695,21	1193,00
695,47	1200,00
695,72	1190,00
695,98	1198,00
696,23	1197,00
696,48	1201,00
696,74	1195,00
696,99	1190,00
697,25	1195,00
697,50	1193,00
697,76	1180,00
698,01	1210,00
698,26	1197,00
698,52	1190,00
698,77	1192,00
699,03	1183,00
699,28	1190,00
699,54	1203,00
699,79	1205,00
700,04	1190,00
700,30	1208,00
700,55	1206,00
700,81	1204,00
701,06	1204,00
701,31	1188,00
701,57	1215,00
701,82	1223,00
702,08	1238,00
702,33	1228,00
702,58	1235,00
702,84	1240,00
703,09	1236,00
703,35	1262,00
703,60	1286,00
703,85	1276,00
704,11	1296,00
704,36	1330,00
704,62	1358,00
704,87	1390,00
705,12	1457,00
705,38	1497,00
705,63	1540,00
705,89	1566,00
706,14	1580,00
706,39	1552,00
706,65	1534,00
706,90	1511,00
707,16	1484,00
707,41	1544,00
707,66	1595,00
707,92	1640,00
708,17	1645,00
708,42	1589,00
708,68	1487,00
708,93	1408,00
709,19	1315,00
709,44	1318,00
709,69	1328,00
709,95	1314,00
710,20	1373,00
710,46	1418,00
710,71	1467,00
710,96	1539,00
711,22	1579,00
711,47	1553,00
711,72	1505,00
711,98	1426,00
712,23	1376,00
712,48	1301,00
712,74	1260,00
712,99	1246,00
713,25	1228,00
713,50	1213,00
713,75	1207,00
714,01	1192,00
714,26	1186,00
714,51	1195,00
714,77	1196,00
715,02	1181,00
715,28	1214,00
715,53	1200,00
715,78	1198,00
716,04	1196,00
716,29	1181,00
716,54	1188,00
716,80	1199,00
717,05	1195,00
717,30	1188,00
717,56	1174,00
717,81	1170,00
718,06	1170,00
718,32	1162,00
718,57	1178,00
718,82	1187,00
719,08	1178,00
719,33	1188,00
719,58	1182,00
719,84	1181,00
720,09	1179,00
720,35	1191,00
720,60	1197,00
720,85	1188,00
721,11	1182,00
721,36	1201,00
721,61	1180,00
721,87	1178,00
722,12	1177,00
722,37	1185,00
722,63	1184,00
722,88	1184,00
723,13	1202,00
723,39	1186,00
723,64	1178,00
723,89	1169,00
724,15	1183,00
724,40	1199,00
724,65	1190,00
724,91	1200,00
725,16	1180,00
725,41	1184,00
725,67	1173,00
725,92	1189,00
726,17	1195,00
726,42	1182,00
726,68	1181,00
726,93	1190,00
727,18	1177,00
727,44	1171,00
727,69	1161,00
727,94	1177,00
728,20	1184,00
728,45	1178,00
728,70	1177,00
728,96	1176,00
729,21	1180,00
729,46	1191,00
729,72	1170,00
729,97	1190,00
730,22	1182,00
730,48	1168,00
730,73	1176,00
730,98	1178,00
731,23	1190,00
731,49	1179,00
731,74	1175,00
731,99	1186,00
732,25	1170,00
732,50	1188,00
732,75	1166,00
733,01	1181,00
733,26	1182,00
733,51	1191,00
733,76	1173,00
734,02	1170,00
734,27	1187,00
734,52	1170,00
734,78	1172,00
735,03	1166,00
735,28	1158,00
735,54	1176,00
735,79	1184,00
736,04	1173,00
736,29	1161,00
736,55	1181,00
736,80	1181,00
737,05	1183,00
737,31	1200,00
737,56	1189,00
737,81	1170,00
738,06	1156,00
738,32	1177,00
738,57	1174,00
738,82	1175,00
739,07	1174,00
739,33	1179,00
739,58	1174,00
739,83	1169,00
740,09	1204,00
740,34	1183,00
740,59	1182,00
740,84	1175,00
741,10	1185,00
741,35	1173,00
741,60	1194,00
741,86	1201,00
742,11	1187,00
742,36	1176,00
742,61	1176,00
742,87	1162,00
743,12	1175,00
743,37	1173,00
743,62	1183,00
743,88	1170,00
744,13	1177,00
744,38	1170,00
744,63	1180,00
744,89	1193,00
745,14	1182,00
745,39	1163,00
745,64	1193,00
745,90	1177,00
746,15	1172,00
746,40	1185,00
746,65	1175,00
746,91	1171,00
747,16	1194,00
747,41	1184,00
747,66	1188,00
747,92	1166,00
748,17	1171,00
748,42	1172,00
748,67	1185,00
748,93	1192,00
749,18	1184,00
749,43	1185,00
749,68	1200,00
749,94	1174,00
750,19	1164,00
750,44	1167,00
750,69	1173,00
750,95	1185,00
751,20	1186,00
751,45	1167,00
751,70	1164,00
751,96	1178,00
752,21	1187,00
752,46	1165,00
752,71	1175,00
752,96	1186,00
753,22	1169,00
753,47	1176,00
753,72	1182,00
753,97	1176,00
754,23	1197,00
754,48	1180,00
754,73	1176,00
754,98	1164,00
755,24	1174,00
755,49	1169,00
755,74	1182,00
755,99	1177,00
756,24	1165,00
756,50	1169,00
756,75	1185,00
757,00	1183,00
757,25	1172,00
757,50	1157,00
757,76	1171,00
758,01	1164,00
758,26	1181,00
758,51	1168,00
758,77	1163,00
759,02	1175,00
759,27	1157,00
759,52	1168,00
759,77	1174,00
760,03	1176,00
760,28	1162,00
760,53	1174,00
760,78	1174,00
761,03	1166,00
761,29	1170,00
761,54	1170,00
761,79	1182,00
762,04	1166,00
762,29	1167,00
762,55	1170,00
762,80	1173,00
763,05	1173,00
763,30	1185,00
763,55	1179,00
763,81	1181,00
764,06	1169,00
764,31	1179,00
764,56	1175,00
764,81	1176,00
765,07	1169,00
765,32	1176,00
765,57	1168,00
765,82	1174,00
766,07	1164,00
766,32	1173,00
766,58	1166,00
766,83	1167,00
767,08	1172,00
767,33	1150,00
767,58	1164,00
767,84	1182,00
768,09	1188,00
768,34	1172,00
768,59	1166,00
768,84	1168,00
769,09	1176,00
769,35	1174,00
769,60	1173,00
769,85	1169,00
770,10	1174,00
770,35	1170,00
770,60	1178,00
770,86	1182,00
771,11	1156,00
771,36	1186,00
771,61	1186,00
771,86	1194,00
772,11	1168,00
772,37	1188,00
772,62	1179,00
772,87	1170,00
773,12	1181,00
773,37	1179,00
773,62	1177,00
773,88	1171,00
774,13	1181,00
774,38	1168,00
774,63	1175,00
774,88	1169,00
775,13	1165,00
775,38	1162,00
775,64	1175,00
775,89	1180,00
776,14	1171,00
776,39	1152,00
776,64	1168,00
776,89	1162,00
777,15	1173,00
777,40	1176,00
777,65	1148,00
777,90	1168,00
778,15	1154,00
778,40	1182,00
778,65	1164,00
778,91	1161,00
779,16	1170,00
779,41	1180,00
779,66	1174,00
779,91	1141,00
780,16	1171,00
780,41	1162,00
780,66	1174,00
780,92	1173,00
781,17	1180,00
781,42	1161,00
781,67	1166,00
781,92	1159,00
782,17	1160,00
782,42	1169,00
782,68	1163,00
782,93	1162,00
783,18	1158,00
783,43	1186,00
783,68	1165,00
783,93	1162,00
784,18	1176,00
784,43	1161,00
784,69	1165,00
784,94	1157,00
785,19	1166,00
785,44	1170,00
785,69	1164,00
785,94	1168,00
786,19	1156,00
786,44	1166,00
786,69	1169,00
786,95	1158,00
787,20	1148,00
787,45	1172,00
787,70	1168,00
787,95	1166,00
788,20	1159,00
788,45	1162,00
788,70	1160,00
788,95	1169,00
789,21	1158,00
789,46	1169,00
789,71	1169,00
789,96	1162,00
790,21	1155,00
790,46	1162,00
790,71	1163,00
790,96	1180,00
791,21	1180,00
791,46	1165,00
791,72	1170,00
791,97	1160,00
792,22	1178,00
792,47	1178,00
792,72	1156,00
792,97	1178,00
793,22	1175,00
793,47	1171,00
793,72	1172,00
793,97	1181,00
794,22	1162,00
794,47	1173,00
794,73	1177,00
794,98	1172,00
795,23	1172,00
795,48	1165,00
795,73	1161,00
795,98	1166,00
796,23	1163,00
796,48	1160,00
796,73	1180,00
796,98	1156,00
797,23	1158,00
797,48	1171,00
797,74	1168,00
797,99	1175,00
798,24	1164,00
798,49	1168,00
798,74	1163,00
798,99	1184,00
799,24	1167,00
799,49	1178,00
799,74	1166,00
799,99	1160,00
800,24	1159,00
800,49	1173,00
800,74	1153,00
800,99	1160,00
801,24	1182,00
801,50	1177,00
801,75	1178,00
802,00	1172,00
802,25	1157,00
802,50	1157,00
802,75	1156,00
803,00	1166,00
803,25	1165,00
803,50	1167,00
803,75	1163,00
804,00	1171,00
804,25	1165,00
804,50	1171,00
804,75	1162,00
805,00	1154,00
805,25	1176,00
805,50	1177,00
805,75	1161,00
806,00	1181,00
806,26	1177,00
806,51	1165,00
806,76	1169,00
807,01	1175,00
807,26	1171,00
807,51	1167,00
807,76	1179,00
808,01	1165,00
808,26	1168,00
808,51	1168,00
808,76	1150,00
809,01	1171,00
809,26	1151,00
809,51	1171,00
809,76	1178,00
810,01	1183,00
810,26	1188,00
810,51	1195,00
810,76	1185,00
811,01	1178,00
811,26	1177,00
811,51	1173,00
811,76	1156,00
812,01	1176,00
812,26	1154,00
812,51	1159,00
812,76	1162,00
813,01	1172,00
813,26	1174,00
813,51	1170,00
813,76	1156,00
814,01	1160,00
814,26	1153,00
814,51	1150,00
814,76	1142,00
815,02	1163,00
815,27	1178,00
815,52	1154,00
815,77	1157,00
816,02	1157,00
816,27	1164,00
816,52	1172,00
816,77	1166,00
817,02	1189,00
817,27	1171,00
817,52	1157,00
817,77	1152,00
818,02	1169,00
818,27	1162,00
818,52	1180,00
818,77	1152,00
819,02	1170,00
819,27	1163,00
819,52	1152,00
819,77	1162,00
820,02	1165,00
820,27	1144,00
820,52	1176,00
820,77	1173,00
821,02	1161,00
821,27	1161,00
821,52	1156,00
821,77	1159,00
822,02	1172,00
822,26	1152,00
822,51	1156,00
822,76	1171,00
823,01	1162,00
823,26	1180,00
823,51	1151,00
823,76	1162,00
824,01	1165,00
824,26	1177,00
824,51	1183,00
824,76	1172,00
825,01	1160,00
825,26	1167,00
825,51	1172,00
825,76	1165,00
826,01	1144,00
826,26	1147,00
826,51	1159,00
826,76	1165,00
827,01	1149,00
827,26	1170,00
827,51	1174,00
827,76	1171,00
828,01	1161,00
828,26	1156,00
828,51	1169,00
828,76	1182,00
829,01	1170,00
829,26	1149,00
829,51	1172,00
829,76	1153,00
830,01	1158,00
830,26	1157,00
830,51	1153,00
830,76	1167,00
831,00	1155,00
831,25	1161,00
831,50	1160,00
831,75	1161,00
832,00	1165,00
832,25	1181,00
832,50	1164,00
832,75	1162,00
833,00	1169,00
833,25	1173,00
833,50	1164,00
833,75	1161,00
834,00	1171,00
834,25	1186,00
834,50	1160,00
834,75	1161,00
835,00	1150,00
835,25	1154,00
835,50	1163,00
835,74	1160,00
835,99	1148,00
836,24	1163,00
836,49	1169,00
836,74	1155,00
836,99	1150,00
837,24	1158,00
837,49	1154,00
837,74	1148,00
837,99	1160,00
838,24	1169,00
838,49	1160,00
838,74	1155,00
838,99	1171,00
839,24	1171,00
839,48	1168,00
839,73	1162,00
839,98	1173,00
840,23	1157,00
840,48	1166,00
840,73	1161,00
840,98	1159,00
841,23	1165,00
841,48	1177,00
841,73	1157,00
841,98	1176,00
842,23	1167,00
842,48	1169,00
842,72	1174,00
842,97	1182,00
843,22	1169,00
843,47	1164,00
843,72	1160,00
843,97	1168,00
844,22	1157,00
844,47	1166,00
844,72	1154,00
844,97	1164,00
845,22	1142,00
845,46	1172,00
845,71	1169,00
845,96	1166,00
846,21	1163,00
846,46	1166,00
846,71	1157,00
846,96	1154,00
847,21	1157,00
847,46	1146,00
847,71	1162,00
847,95	1165,00
848,20	1170,00
848,45	1156,00
848,70	1154,00
848,95	1150,00
849,20	1165,00
849,45	1164,00
849,70	1148,00
849,95	1173,00
850,19	1147,00
850,44	1153,00
850,69	1182,00
850,94	1172,00
851,19	1173,00
851,44	1174,00
851,69	1156,00
851,94	1152,00
852,19	1183,00
852,43	1159,00
852,68	1152,00
852,93	1166,00
853,18	1159,00
853,43	1165,00
853,68	1176,00
853,93	1161,00
854,18	1137,00
854,42	1157,00
854,67	1158,00
854,92	1166,00
855,17	1156,00
855,42	1144,00
855,67	1154,00
855,92	1163,00
856,16	1164,00
856,41	1146,00
856,66	1164,00
856,91	1178,00
857,16	1178,00
857,41	1152,00
857,66	1160,00
857,91	1164,00
858,15	1157,00
858,40	1165,00
858,65	1158,00
858,90	1157,00
859,15	1142,00
859,40	1170,00
859,65	1151,00
859,89	1172,00
860,14	1160,00
860,39	1163,00
860,64	1159,00
860,89	1159,00
861,14	1158,00
861,38	1168,00
861,63	1167,00
861,88	1162,00
862,13	1155,00
862,38	1150,00
862,63	1164,00
862,88	1152,00
863,12	1178,00
863,37	1162,00
863,62	1151,00
863,87	1168,00
864,12	1150,00
864,37	1146,00
864,61	1150,00
864,86	1171,00
865,11	1162,00
865,36	1164,00
865,61	1165,00
865,86	1168,00
866,10	1176,00
866,35	1172,00
866,60	1138,00
866,85	1162,00
867,10	1164,00
867,35	1147,00
867,59	1158,00
867,84	1157,00
868,09	1161,00
868,34	1141,00
868,59	1139,00
868,83	1174,00
869,08	1162,00
869,33	1167,00
869,58	1152,00
869,83	1158,00
870,08	1154,00
870,32	1182,00
870,57	1160,00
870,82	1174,00
871,07	1155,00
871,32	1163,00
871,56	1172,00
871,81	1178,00
872,06	1165,00
872,31	1155,00
872,56	1172,00
872,81	1160,00
873,05	1169,00
873,30	1153,00
873,55	1156,00
873,80	1153,00
874,05	1140,00
874,29	1155,00
874,54	1159,00
874,79	1173,00
875,04	1161,00
875,29	1169,00
875,53	1167,00
875,78	1165,00
876,03	1150,00
876,28	1174,00
876,52	1163,00
876,77	1154,00
877,02	1165,00
877,27	1160,00
877,52	1164,00
877,76	1157,00
878,01	1158,00
878,26	1185,00
878,51	1159,00
878,76	1145,00
879,00	1180,00
879,25	1167,00
879,50	1185,00
879,75	1151,00
880,00	1155,00
880,24	1181,00
880,49	1159,00
880,74	1160,00
880,99	1173,00
881,23	1151,00
881,48	1165,00
881,73	1174,00
881,98	1157,00
882,22	1158,00
882,47	1147,00
882,72	1165,00
882,97	1147,00
883,22	1160,00
883,46	1158,00
883,71	1164,00
883,96	1211,00
884,21	1163,00
884,45	1166,00
884,70	1159,00
884,95	1156,00
885,20	1157,00
885,44	1153,00
885,69	1158,00
885,94	1156,00
886,19	1157,00
886,43	1172,00
886,68	1160,00
886,93	1154,00
887,18	1158,00
887,42	1174,00
887,67	1164,00
887,92	1178,00
888,17	1159,00
888,42	1170,00
888,66	1173,00
888,91	1160,00
889,16	1163,00
889,40	1154,00
889,65	1149,00
889,90	1146,00
890,15	1152,00
890,39	1168,00
890,64	1155,00
890,89	1162,00
891,14	1136,00
891,38	1171,00
891,63	1161,00
891,88	1160,00
892,13	1170,00
892,37	1160,00
892,62	1157,00
892,87	1145,00
893,12	1149,00
893,36	1142,00
893,61	1135,00
893,86	1144,00
894,11	1156,00
894,35	1154,00
894,60	1164,00
894,85	1154,00
895,09	1160,00
895,34	1169,00
895,59	1154,00
895,84	1150,00
896,08	1142,00
896,33	1153,00
896,58	1154,00
896,82	1159,00
897,07	1158,00
897,32	1148,00
897,57	1149,00
897,81	1148,00
898,06	1158,00
898,31	1146,00
898,55	1161,00
898,80	1156,00
899,05	1189,00
899,30	1157,00
899,54	1149,00
899,79	1162,00
900,04	1167,00
900,28	1161,00
900,53	1158,00
900,78	1157,00
901,03	1175,00
901,27	1167,00
901,52	1153,00
901,77	1154,00
902,01	1159,00
902,26	1163,00
902,51	1153,00
902,75	1154,00
903,00	1150,00
903,25	1156,00
903,50	1165,00
903,74	1155,00
903,99	1142,00
904,24	1158,00
904,48	1172,00
904,73	1162,00
904,98	1172,00
905,22	1164,00
905,47	1153,00
905,72	1170,00
905,96	1172,00
906,21	1165,00
906,46	1166,00
906,70	1163,00
906,95	1149,00
907,20	1149,00
907,45	1147,00
907,69	1154,00
907,94	1144,00
908,19	1158,00
908,43	1152,00
908,68	1166,00
908,93	1138,00
909,17	1145,00
909,42	1148,00
909,67	1155,00
909,91	1156,00
910,16	1163,00
910,41	1141,00
910,65	1166,00
910,90	1173,00
911,15	1159,00
911,39	1152,00
911,64	1157,00
911,89	1173,00
912,13	1158,00
912,38	1147,00
912,63	1156,00
912,87	1166,00
913,12	1163,00
913,37	1152,00
913,61	1147,00
913,86	1154,00
914,11	1165,00
914,35	1149,00
914,60	1163,00
914,85	1151,00
915,09	1155,00
915,34	1155,00
915,58	1168,00
915,83	1152,00
916,08	1146,00
916,32	1156,00
916,57	1144,00
916,82	1154,00
917,06	1158,00
917,31	1178,00
917,56	1153,00
917,80	1148,00
918,05	1164,00
918,30	1143,00
918,54	1170,00
918,79	1161,00
919,04	1166,00
919,28	1153,00
919,53	1162,00
919,77	1149,00
920,02	1151,00
920,27	1167,00
920,51	1160,00
920,76	1173,00
921,01	1173,00
921,25	1168,00
921,50	1168,00
921,74	1165,00
921,99	1170,00
922,24	1154,00
922,48	1149,00
922,73	1156,00
922,98	1171,00
923,22	1163,00
923,47	1164,00
923,71	1169,00
923,96	1157,00
924,21	1154,00
924,45	1152,00
924,70	1160,00
924,95	1158,00
925,19	1147,00
925,44	1161,00
925,68	1160,00
925,93	1140,00
926,18	1143,00
926,42	1144,00
926,67	1159,00
926,91	1168,00
927,16	1164,00
927,41	1152,00
927,65	1149,00
927,90	1153,00
928,14	1172,00
928,39	1163,00
928,64	1161,00
928,88	1164,00
929,13	1160,00
929,37	1158,00
929,62	1156,00
929,87	1150,00
930,11	1166,00
930,36	1133,00
930,60	1147,00
930,85	1166,00
931,10	1143,00
931,34	1149,00
931,59	1163,00
931,83	1156,00
932,08	1149,00
932,33	1146,00
932,57	1150,00
932,82	1166,00
933,06	1165,00
933,31	1145,00
933,56	1170,00
933,80	1182,00
934,05	1158,00
934,29	1151,00
934,54	1167,00
934,78	1148,00
935,03	1157,00
935,28	1150,00
935,52	1162,00
935,77	1160,00
936,01	1153,00
936,26	1166,00
936,51	1160,00
936,75	1164,00
937,00	1178,00
937,24	1168,00
937,49	1150,00
937,73	1148,00
937,98	1153,00
938,22	1150,00
938,47	1145,00
938,72	1138,00
938,96	1159,00
939,21	1143,00
939,45	1162,00
939,70	1153,00
939,94	1175,00
940,19	1168,00
940,44	1156,00
940,68	1174,00
940,93	1170,00
941,17	1159,00
941,42	1165,00
941,66	1162,00
941,91	1174,00
942,15	1148,00
942,40	1168,00
942,65	1153,00
942,89	1162,00
943,14	1159,00
943,38	1170,00
943,63	1168,00
943,87	1148,00
944,12	1148,00
944,36	1145,00
944,61	1134,00
944,85	1156,00
945,10	1155,00
945,35	1158,00
945,59	1161,00
945,84	1154,00
946,08	1169,00
946,33	1147,00
946,57	1156,00
946,82	1157,00
947,06	1150,00
947,31	1160,00
947,55	1168,00
947,80	1148,00
948,04	1162,00
948,29	1158,00
948,54	1174,00
948,78	1149,00
949,03	1160,00
949,27	1160,00
949,52	1180,00
949,76	1170,00
950,01	1158,00
950,25	1148,00
950,50	1157,00
950,74	1154,00
950,99	1165,00
951,23	1154,00
951,48	1162,00
951,72	1149,00
951,97	1145,00
952,21	1146,00
952,46	1156,00
952,70	1151,00
952,95	1145,00
953,19	1165,00
953,44	1144,00
953,68	1137,00
953,93	1142,00
954,17	1161,00
954,42	1165,00
954,66	1159,00
954,91	1152,00
955,15	1165,00
955,40	1160,00
955,64	1154,00
955,89	1157,00
956,13	1157,00
956,38	1145,00
956,62	1162,00
956,87	1168,00
957,11	1157,00
957,36	1162,00
957,60	1159,00
957,85	1160,00
958,09	1158,00
958,34	1148,00
958,58	1161,00
958,83	1176,00
959,07	1146,00
959,32	1144,00
959,56	1161,00
959,81	1179,00
960,05	1173,00
960,30	1153,00
960,54	1160,00
960,79	1160,00
961,03	1153,00
961,28	1161,00
961,52	1160,00
961,77	1162,00
962,01	1162,00
962,26	1143,00
962,50	1171,00
962,75	1143,00
962,99	1165,00
963,24	1168,00
963,48	1157,00
963,73	1164,00
963,97	1152,00
964,21	1172,00
964,46	1148,00
964,70	1162,00
964,95	1172,00
965,19	1178,00
965,44	1149,00
965,68	1155,00
965,93	1142,00
966,17	1171,00
966,42	1172,00
966,66	1148,00
966,91	1155,00
967,15	1153,00
967,40	1153,00
967,64	1166,00
967,88	1165,00
968,13	1160,00
968,37	1155,00
968,62	1159,00
968,86	1165,00
969,11	1159,00
969,35	1163,00
969,60	1160,00
969,84	1158,00
970,09	1160,00
970,33	1158,00
970,57	1163,00
970,82	1164,00
971,06	1165,00
971,31	1176,00
971,55	1152,00
971,80	1152,00
972,04	1160,00
972,29	1174,00
972,53	1158,00
972,77	1143,00
973,02	1172,00
973,26	1161,00
973,51	1170,00
973,75	1153,00
974,00	1165,00
974,24	1153,00
974,48	1157,00
974,73	1148,00
974,97	1153,00
975,22	1160,00
975,46	1145,00
975,71	1157,00
975,95	1164,00
976,19	1138,00
976,44	1153,00
976,68	1168,00
976,93	1151,00
977,17	1166,00
977,42	1169,00
977,66	1159,00
977,90	1152,00
978,15	1165,00
978,39	1169,00
978,64	1166,00
978,88	1160,00
979,12	1136,00
979,37	1135,00
979,61	1148,00
979,86	1148,00
980,10	1149,00
980,35	1166,00
980,59	1154,00
980,83	1169,00
981,08	1158,00
981,32	1164,00
981,57	1157,00
981,81	1147,00
982,05	1168,00
982,30	1176,00
982,54	1150,00
982,79	1154,00
983,03	1148,00
983,27	1142,00
983,52	1161,00
983,76	1158,00
984,01	1164,00
984,25	1166,00
984,49	1161,00
984,74	1149,00
984,98	1162,00
985,23	1157,00
985,47	1164,00
985,71	1169,00
985,96	1156,00
986,20	1165,00
986,45	1143,00
986,69	1163,00
986,93	1162,00
987,18	1150,00
987,42	1147,00
987,66	1164,00
987,91	1168,00
988,15	1166,00
988,40	1148,00
988,64	1158,00
988,88	1160,00
989,13	1151,00
989,37	1158,00
989,61	1152,00
989,86	1150,00
990,10	1163,00
990,35	1175,00
990,59	1172,00
990,83	1150,00
991,08	1166,00
991,32	1160,00
991,56	1163,00
991,81	1164,00
992,05	1172,00
992,30	1160,00
992,54	1143,00
992,78	1152,00
993,03	1154,00
993,27	1157,00
993,51	1157,00
993,76	1156,00
994,00	1162,00
994,24	1172,00
994,49	1176,00
994,73	1158,00
994,98	1156,00
995,22	1148,00
995,46	1153,00
995,71	1144,00
995,95	1161,00
996,19	1149,00
996,44	1163,00
996,68	1157,00
996,92	1156,00
997,17	1169,00
997,41	1153,00
997,65	1173,00
997,90	1184,00
998,14	1151,00
998,38	1159,00
998,63	1140,00
998,87	1150,00
999,11	1155,00
999,36	1162,00
999,60	1158,00
999,84	1158,00
1000,09	1157,00
1000,33	1177,00
1000,57	1165,00
1000,82	1161,00
1001,06	1153,00
1001,30	1172,00
1001,55	1165,00
1001,79	1171,00
1002,03	1162,00
1002,28	1162,00
1002,52	1155,00
1002,76	1171,00
1003,01	1164,00
1003,25	1150,00
1003,49	1168,00
1003,74	1164,00
1003,98	1169,00
1004,22	1169,00
1004,47	1163,00
1004,71	1151,00
1004,95	1161,00
1005,20	1164,00
1005,44	1158,00
1005,68	1163,00
1005,93	1155,00
1006,17	1164,00
1006,41	1165,00
1006,66	1179,00
1006,90	1182,00
1007,14	1162,00
1007,38	1154,00
1007,63	1148,00
1007,87	1163,00
1008,11	1163,00
1008,36	1160,00
1008,60	1162,00
1008,84	1157,00
1009,09	1169,00
1009,33	1162,00
1009,57	1160,00
1009,81	1140,00
1010,06	1166,00
1010,30	1160,00
1010,54	1175,00
1010,79	1149,00
1011,03	1151,00
1011,27	1155,00
1011,52	1160,00
1011,76	1158,00
1012,00	1170,00
1012,24	1174,00
1012,49	1180,00
1012,73	1201,00
1012,97	1181,00
1013,22	1196,00
1013,46	1206,00
1013,70	1190,00
1013,94	1186,00
1014,19	1177,00
1014,43	1166,00
1014,67	1158,00
1014,92	1171,00
1015,16	1170,00
1015,40	1172,00
1015,64	1173,00
1015,89	1166,00
1016,13	1172,00
1016,37	1155,00
1016,62	1153,00
1016,86	1150,00
1017,10	1168,00
1017,34	1162,00
1017,59	1166,00
1017,83	1154,00
1018,07	1159,00
1018,31	1150,00
1018,56	1154,00
1018,80	1153,00
1019,04	1156,00
1019,28	1168,00
1019,53	1144,00
1019,77	1162,00
1020,01	1158,00
1020,26	1153,00
1020,50	1143,00
1020,74	1159,00
1020,98	1150,00
1021,23	1164,00
1021,47	1168,00
1021,71	1156,00
1021,95	1162,00
1022,20	1160,00
1022,44	1160,00
1022,68	1164,00
1022,92	1174,00
1023,17	1177,00
1023,41	1156,00
1023,65	1157,00
1023,89	1157,00
1024,14	1153,00
1024,38	1161,00
1024,62	1149,00
1024,86	1164,00
1025,11	1163,00
1025,35	1174,00
1025,59	1166,00
1025,83	1169,00
1026,07	1168,00
1026,32	1142,00
1026,56	1158,00
1026,80	1150,00
1027,04	1155,00
1027,29	1162,00
1027,53	1171,00
1027,77	1153,00
1028,01	1171,00
1028,26	1160,00
1028,50	1158,00
1028,74	1153,00
1028,98	1158,00
1029,22	1166,00
1029,47	1157,00
1029,71	1172,00
1029,95	1165,00
1030,19	1160,00
1030,44	1160,00
1030,68	1152,00
1030,92	1153,00
1031,16	1158,00
1031,40	1163,00
1031,65	1168,00
1031,89	1158,00
1032,13	1154,00
1032,37	1149,00
1032,62	1167,00
1032,86	1160,00
1033,10	1158,00
1033,34	1166,00
1033,58	1151,00
1033,83	1154,00
1034,07	1158,00
1034,31	1159,00
1034,55	1154,00
1034,79	1162,00
1035,04	1162,00
1035,28	1168,00
1035,52	1151,00
1035,76	1150,00
1036,00	1144,00
1036,25	1147,00
1036,49	1155,00
1036,73	1162,00
1036,97	1147,00
1037,21	1135,00
1037,46	1169,00
1037,70	1169,00
1037,94	1152,00
1038,18	1179,00
1038,42	1161,00
1038,67	1157,00
1038,91	1176,00
1039,15	1147,00
1039,39	1158,00
1039,63	1158,00
1039,88	1156,00
1040,12	1156,00
1040,36	1158,00
1040,60	1160,00
1040,84	1155,00
1041,08	1139,00
1041,33	1152,00
1041,57	1148,00
1041,81	1169,00
1042,05	1156,00
1042,29	1165,00
1042,53	1149,00
1042,78	1156,00
1043,02	1167,00
1043,26	1171,00
1043,50	1158,00
1043,74	1170,00
1043,99	1145,00
1044,23	1154,00
1044,47	1174,00
1044,71	1156,00
1044,95	1169,00
1045,19	1162,00
1045,44	1176,00
1045,68	1162,00
1045,92	1166,00
1046,16	1165,00
1046,40	1172,00
1046,64	1168,00
1046,88	1149,00
1047,13	1190,00
1047,37	1175,00
1047,61	1162,00
1047,85	1144,00
1048,09	1169,00
1048,33	1151,00
1048,58	1169,00
1048,82	1168,00
1049,06	1143,00
1049,30	1165,00
1049,54	1146,00
1049,78	1144,00
1050,02	1149,00
1050,27	1142,00
1050,51	1142,00
1050,75	1157,00
1050,99	1158,00
1051,23	1173,00
1051,47	1172,00
1051,71	1170,00
1051,96	1185,00
1052,20	1163,00
1052,44	1163,00
1052,68	1158,00
1052,92	1150,00
1053,16	1170,00
1053,40	1154,00
1053,65	1149,00
1053,89	1162,00
1054,13	1142,00
1054,37	1146,00
1054,61	1161,00
1054,85	1155,00
1055,09	1152,00
1055,33	1165,00
1055,58	1150,00
1055,82	1147,00
1056,06	1153,00
1056,30	1161,00
1056,54	1170,00
1056,78	1145,00
1057,02	1149,00
1057,26	1159,00
1057,51	1156,00
1057,75	1166,00
1057,99	1153,00
1058,23	1164,00
1058,47	1160,00
1058,71	1155,00
1058,95	1157,00
1059,19	1143,00
1059,43	1150,00
1059,68	1151,00
1059,92	1158,00
1060,16	1156,00
1060,40	1154,00
1060,64	1162,00
1060,88	1160,00
1061,12	1154,00
1061,36	1152,00
1061,60	1141,00
1061,84	1157,00
1062,09	1153,00
1062,33	1158,00
1062,57	1153,00
1062,81	1164,00
1063,05	1148,00
1063,29	1154,00
1063,53	1170,00
1063,77	1155,00
1064,01	1160,00
1064,25	1161,00
1064,50	1161,00
1064,74	1147,00
1064,98	1147,00
1065,22	1164,00
1065,46	1145,00
1065,70	1147,00
1065,94	1152,00
1066,18	1158,00
1066,42	1151,00
1066,66	1148,00
1066,90	1161,00
1067,14	1168,00
1067,39	1159,00
1067,63	1155,00
1067,87	1158,00
1068,11	1166,00
1068,35	1164,00
1068,59	1161,00
1068,83	1168,00
1069,07	1166,00
1069,31	1166,00
1069,55	1154,00
1069,79	1150,00
1070,03	1150,00
1070,27	1150,00
1070,52	1145,00
1070,76	1147,00
1071,00	1150,00
1071,24	1149,00
1071,48	1157,00
1071,72	1141,00
1071,96	1136,00
1072,20	1150,00
1072,44	1161,00
1072,68	1152,00
1072,92	1161,00
1073,16	1175,00
1073,40	1165,00
1073,64	1168,00
1073,88	1159,00
1074,12	1163,00
1074,36	1169,00
1074,61	1153,00
1074,85	1151,00
1075,09	1217,00
1075,33	1169,00
1075,57	1159,00
1075,81	1167,00
1076,05	1166,00
1076,29	1142,00
1076,53	1152,00
1076,77	1145,00
1077,01	1156,00
1077,25	1158,00
1077,49	1148,00
1077,73	1148,00
1077,97	1166,00
1078,21	1156,00
1078,45	1172,00
1078,69	1164,00
1078,93	1165,00
1079,17	1151,00
1079,41	1163,00
1079,65	1168,00
1079,89	1152,00
1080,13	1171,00
1080,37	1166,00
1080,61	1163,00
1080,86	1152,00
1081,10	1147,00
1081,34	1158,00
1081,58	1167,00
1081,82	1150,00
1082,06	1170,00
1082,30	1175,00
1082,54	1159,00
1082,78	1154,00
1083,02	1157,00
1083,26	1162,00
1083,50	1163,00
1083,74	1162,00
1083,98	1166,00
1084,22	1146,00
1084,46	1172,00
1084,70	1171,00
1084,94	1161,00
1085,18	1160,00
1085,42	1144,00
1085,66	1164,00
1085,90	1172,00
1086,14	1166,00
1086,38	1153,00
1086,62	1149,00
1086,86	1159,00
1087,10	1160,00
1087,34	1163,00
1087,58	1148,00
1087,82	1146,00
1088,06	1144,00
1088,30	1154,00
1088,54	1164,00
1088,78	1154,00
1089,02	1163,00
1089,26	1172,00
1089,50	1172,00
1089,74	1167,00
1089,98	1166,00
1090,22	1159,00
1090,46	1162,00
1090,70	1172,00
1090,94	1152,00
1091,18	1160,00
1091,42	1165,00
1091,66	1151,00
1091,90	1153,00
1092,14	1145,00
1092,38	1153,00
1092,62	1153,00
1092,86	1158,00
1093,10	1169,00
1093,34	1161,00
1093,58	1168,00
1093,82	1163,00
1094,06	1166,00
1094,30	1161,00
1094,54	1159,00
1094,78	1154,00
1095,01	1148,00
1095,25	1160,00
1095,49	1179,00
1095,73	1170,00
1095,97	1151,00
1096,21	1160,00
1096,45	1158,00
1096,69	1165,00
1096,93	1180,00
1097,17	1164,00
1097,41	1157,00
1097,65	1157,00
1097,89	1152,00
1098,13	1159,00
1098,37	1160,00
1098,61	1152,00
1098,85	1155,00
1099,09	1172,00
1099,33	1149,00
1099,57	1168,00
1099,81	1168,00
1100,05	1151,00
1100,29	1158,00
1100,53	1155,00
1100,77	1143,00
1101,00	1153,00
1101,24	1158,00
1101,48	1163,00
1101,72	1140,00
1101,96	1142,00
1102,20	1161,00
1102,44	1161,00
1102,68	1160,00
1102,92	1168,00
1103,16	1156,00
1103,40	1163,00
1103,64	1160,00
1103,88	1160,00
1104,12	1141,00
1104,36	1173,00
1104,60	1152,00
1104,84	1153,00
1105,07	1143,00
1105,31	1173,00
1105,55	1169,00
1105,79	1176,00
1106,03	1160,00
1106,27	1160,00
1106,51	1154,00
1106,75	1159,00
1106,99	1173,00
1107,23	1158,00
1107,47	1162,00
1107,71	1154,00
1107,95	1144,00
1108,18	1154,00
1108,42	1161,00
1108,66	1155,00
1108,90	1165,00
1109,14	1172,00
1109,38	1164,00
1109,62	1166,00
1109,86	1151,00
1110,10	1150,00
1110,34	1163,00
1110,58	1157,00
1110,82	1163,00
1111,05	1157,00
1111,29	1175,00
1111,53	1152,00
1111,77	1161,00
1112,01	1170,00
1112,25	1153,00
1112,49	1154,00
1112,73	1151,00
1112,97	1161,00
1113,21	1142,00
1113,45	1147,00
1113,68	1158,00
1113,92	1152,00
1114,16	1152,00
1114,40	1163,00
1114,64	1164,00
1114,88	1155,00
1115,12	1158,00
1115,36	1166,00
1115,60	1166,00
1115,83	1155,00
1116,07	1156,00
1116,31	1144,00
1116,55	1164,00
1116,79	1141,00
1117,03	1152,00
1117,27	1158,00
1117,51	1168,00
1117,75	1168,00
1117,98	1169,00
1118,22	1161,00
1118,46	1172,00
1118,70	1169,00
1118,94	1165,00
1119,18	1153,00
1119,42	1151,00
1119,66	1152,00
1119,89	1141,00
1120,13	1166,00
1120,37	1166,00
1120,61	1165,00
1120,85	1154,00
1121,09	1156,00
1121,33	1157,00
1121,57	1165,00
1121,80	1153,00
1122,04	1168,00
1122,28	1160,00
1122,52	1157,00
1122,76	1160,00
1123,00	1147,00
1123,24	1166,00
1123,47	1145,00
1123,71	1168,00
>>>>>End Processed Spectral Data<<<<<
