SpectraSuite Data File
++++++++++++++++++++++++++++++++++++
Date: Sun Jan 01 01:29:41 GMT-03:00 2006
User: Lavfis
Dark Spectrum Present: Yes
Reference Spectrum Present: Yes
Number of Sampled Component Spectra: 1
Spectrometers: HR4C5405
Integration Time (usec): 3800 (HR4C5405)
Spectra Averaged: 25 (HR4C5405)
Boxcar Smoothing: 10 (HR4C5405)
Correct for Electrical Dark: Yes (HR4C5405)
Strobe/Lamp Enabled: No (HR4C5405)
Correct for Detector Non-linearity: No (HR4C5405)
Correct for Stray Light: No (HR4C5405)
Number of Pixels in Processed Spectrum: 3648
>>>>>Begin Processed Spectral Data<<<<<
194,53	-0,009
194,80	-0,007
195,07	-0,007
195,34	-0,000
195,61	1,260
195,88	-0,351
196,15	0,201
196,42	-0,811
196,69	-0,016
196,96	-0,239
197,23	0,000
197,50	0,037
197,77	0,043
198,04	-1,287
198,31	-0,099
198,58	-0,050
198,85	-0,371
199,12	-0,082
199,39	-0,061
199,66	-0,043
199,93	-0,000
200,20	0,045
200,47	0,217
200,74	0,110
201,01	0,100
201,28	0,398
201,55	0,166
201,82	0,105
202,09	0,131
202,36	-0,079
202,63	0,089
202,90	1,020
203,17	0,161
203,44	0,148
203,71	0,511
203,98	0,054
204,25	0,066
204,52	-0,703
204,79	-0,099
205,06	0,078
205,33	0,035
205,60	0,110
205,86	-0,056
206,13	-0,000
206,40	0,050
206,67	0,039
206,94	0,077
207,21	-0,117
207,48	0,042
207,75	0,055
208,02	0,200
208,29	0,079
208,56	0,090
208,83	-0,318
209,10	0,900
209,37	0,034
209,64	-0,410
209,91	0,160
210,18	-0,000
210,45	0,433
210,72	0,066
210,99	-0,160
211,26	-0,080
211,53	-0,193
211,80	-0,119
212,07	-0,917
212,33	0,092
212,60	0,516
212,87	-2,590
213,14	0,470
213,41	0,303
213,68	0,069
213,95	-1,832
214,22	-0,393
214,49	0,332
214,76	-0,097
215,03	-0,187
215,30	-0,184
215,57	-0,000
215,84	0,044
216,11	-0,065
216,38	-0,167
216,65	-0,084
216,91	0,170
217,18	0,060
217,45	-0,110
217,72	0,123
217,99	0,160
218,26	-0,000
218,53	-0,230
218,80	-0,157
219,07	0,211
219,34	-0,228
219,61	0,463
219,88	1,405
220,15	-0,168
220,42	-0,098
220,68	0,077
220,95	0,064
221,22	1,153
221,49	0,116
221,76	0,080
222,03	-0,000
222,30	0,057
222,57	-0,000
222,84	0,267
223,11	0,188
223,38	0,201
223,65	-0,000
223,92	0,144
224,18	0,134
224,45	0,076
224,72	0,093
224,99	-0,207
225,26	-0,000
225,53	0,051
225,80	0,248
226,07	0,608
226,34	-0,155
226,61	-1,480
226,88	0,085
227,14	-0,274
227,41	-0,000
227,68	-0,183
227,95	-0,000
228,22	0,096
228,49	-0,172
228,76	0,277
229,03	-0,139
229,30	-0,000
229,57	0,179
229,83	-0,734
230,10	-0,000
230,37	-1,254
230,64	0,244
230,91	0,090
231,18	-0,000
231,45	1,333
231,72	1,819
231,99	0,152
232,25	0,335
232,52	0,599
232,79	0,125
233,06	0,180
233,33	0,435
233,60	0,289
233,87	0,450
234,14	-0,272
234,41	0,611
234,67	-0,000
234,94	-0,000
235,21	0,430
235,48	-0,000
235,75	0,230
236,02	-0,341
236,29	-0,000
236,56	-0,287
236,82	-0,358
237,09	0,152
237,36	0,153
237,63	0,409
237,90	-0,000
238,17	0,084
238,44	-0,747
238,71	0,164
238,97	-0,092
239,24	-0,685
239,51	0,372
239,78	0,171
240,05	-0,000
240,32	-0,320
240,59	0,127
240,86	0,564
241,12	0,558
241,39	-0,848
241,66	0,629
241,93	-0,000
242,20	-0,196
242,47	-0,165
242,74	-0,128
243,00	-0,000
243,27	-0,000
243,54	0,369
243,81	-0,156
244,08	0,233
244,35	-0,177
244,62	-0,000
244,88	0,197
245,15	-0,475
245,42	0,133
245,69	0,198
245,96	-0,000
246,23	-0,345
246,50	-0,197
246,76	-0,000
247,03	-0,000
247,30	-0,000
247,57	-0,000
247,84	0,201
248,11	-0,000
248,37	0,646
248,64	0,679
248,91	0,318
249,18	-0,000
249,45	-0,000
249,72	0,223
249,99	0,449
250,25	-1,013
250,52	-0,000
250,79	-0,186
251,06	-0,000
251,33	0,321
251,60	0,201
251,86	0,450
252,13	0,274
252,40	-1,002
252,67	-0,000
252,94	0,863
253,21	0,826
253,47	-0,670
253,74	0,285
254,01	0,177
254,28	-0,479
254,55	-0,000
254,81	0,676
255,08	0,986
255,35	0,275
255,62	0,099
255,89	0,407
256,16	0,167
256,42	0,203
256,69	-0,416
256,96	-0,412
257,23	0,467
257,50	0,213
257,76	0,268
258,03	0,146
258,30	0,117
258,57	0,129
258,84	0,028
259,11	0,018
259,37	-0,070
259,64	-0,087
259,91	-0,073
260,18	-0,125
260,45	-0,410
260,71	-0,000
260,98	-0,199
261,25	-0,097
261,52	-0,150
261,79	-0,596
262,05	-0,526
262,32	-0,450
262,59	-0,177
262,86	-0,275
263,13	-0,469
263,39	-0,642
263,66	-0,257
263,93	-0,621
264,20	-0,696
264,47	-0,600
264,73	-0,462
265,00	-0,399
265,27	-0,540
265,54	-0,381
265,81	-0,000
266,07	-0,000
266,34	-0,747
266,61	-0,672
266,88	-0,831
267,15	-0,602
267,41	-1,256
267,68	-0,598
267,95	-0,631
268,22	-0,615
268,48	-1,002
268,75	-0,538
269,02	-0,556
269,29	-1,051
269,56	-0,541
269,82	-0,495
270,09	-0,723
270,36	-0,634
270,63	-0,607
270,89	-0,526
271,16	-0,639
271,43	-0,784
271,70	-0,611
271,97	-0,621
272,23	-0,610
272,50	-0,685
272,77	-0,602
273,04	-0,455
273,30	-0,838
273,57	-0,675
273,84	-0,619
274,11	-0,539
274,37	-0,724
274,64	-0,637
274,91	-0,513
275,18	-0,583
275,45	-0,508
275,71	-0,561
275,98	-0,496
276,25	-0,528
276,52	-0,684
276,78	-0,403
277,05	-0,450
277,32	-0,530
277,59	-0,450
277,85	-0,486
278,12	-0,508
278,39	-0,416
278,66	-0,434
278,92	-0,459
279,19	-0,550
279,46	-0,576
279,73	-0,361
279,99	-0,416
280,26	-0,412
280,53	-0,347
280,80	-0,347
281,06	-0,284
281,33	-0,302
281,60	-0,297
281,87	-0,234
282,13	-0,250
282,40	-0,238
282,67	-0,255
282,94	-0,231
283,20	-0,185
283,47	-0,215
283,74	-0,174
284,01	-0,142
284,27	-0,131
284,54	-0,123
284,81	-0,099
285,07	-0,085
285,34	-0,070
285,61	-0,061
285,88	-0,044
286,14	-0,037
286,41	-0,023
286,68	-0,013
286,95	-0,002
287,21	0,009
287,48	0,018
287,75	0,024
288,02	0,034
288,28	0,043
288,55	0,051
288,82	0,059
289,08	0,070
289,35	0,079
289,62	0,103
289,89	0,116
290,15	0,124
290,42	0,130
290,69	0,143
290,95	0,160
291,22	0,169
291,49	0,183
291,76	0,188
292,02	0,191
292,29	0,204
292,56	0,211
292,82	0,221
293,09	0,240
293,36	0,244
293,63	0,250
293,89	0,254
294,16	0,265
294,43	0,264
294,69	0,264
294,96	0,277
295,23	0,273
295,50	0,263
295,76	0,277
296,03	0,269
296,30	0,280
296,56	0,283
296,83	0,284
297,10	0,290
297,36	0,302
297,63	0,295
297,90	0,309
298,16	0,323
298,43	0,324
298,70	0,325
298,97	0,334
299,23	0,340
299,50	0,345
299,77	0,334
300,03	0,346
300,30	0,361
300,57	0,352
300,83	0,354
301,10	0,368
301,37	0,382
301,63	0,381
301,90	0,384
302,17	0,400
302,44	0,397
302,70	0,402
302,97	0,396
303,24	0,397
303,50	0,389
303,77	0,392
304,04	0,399
304,30	0,401
304,57	0,402
304,84	0,401
305,10	0,396
305,37	0,405
305,64	0,394
305,90	0,409
306,17	0,405
306,44	0,413
306,70	0,405
306,97	0,408
307,24	0,410
307,50	0,408
307,77	0,421
308,04	0,420
308,30	0,425
308,57	0,419
308,84	0,421
309,10	0,421
309,37	0,422
309,64	0,430
309,90	0,425
310,17	0,430
310,44	0,436
310,70	0,431
310,97	0,441
311,24	0,438
311,50	0,446
311,77	0,452
312,04	0,452
312,30	0,450
312,57	0,451
312,84	0,478
313,10	0,481
313,37	0,478
313,63	0,482
313,90	0,479
314,17	0,487
314,43	0,494
314,70	0,492
314,97	0,483
315,23	0,497
315,50	0,493
315,77	0,493
316,03	0,484
316,30	0,491
316,57	0,505
316,83	0,516
317,10	0,494
317,36	0,500
317,63	0,509
317,90	0,514
318,16	0,506
318,43	0,504
318,70	0,498
318,96	0,494
319,23	0,493
319,50	0,490
319,76	0,494
320,03	0,491
320,29	0,495
320,56	0,499
320,83	0,508
321,09	0,501
321,36	0,491
321,63	0,489
321,89	0,486
322,16	0,495
322,42	0,493
322,69	0,501
322,96	0,495
323,22	0,491
323,49	0,496
323,76	0,493
324,02	0,483
324,29	0,492
324,55	0,497
324,82	0,495
325,09	0,496
325,35	0,491
325,62	0,495
325,88	0,497
326,15	0,491
326,42	0,494
326,68	0,498
326,95	0,504
327,21	0,507
327,48	0,501
327,75	0,506
328,01	0,501
328,28	0,500
328,55	0,492
328,81	0,491
329,08	0,496
329,34	0,502
329,61	0,505
329,88	0,501
330,14	0,515
330,41	0,516
330,67	0,526
330,94	0,511
331,21	0,522
331,47	0,529
331,74	0,547
332,00	0,541
332,27	0,541
332,53	0,553
332,80	0,551
333,07	0,559
333,33	0,568
333,60	0,573
333,86	0,561
334,13	0,583
334,40	0,587
334,66	0,582
334,93	0,595
335,19	0,582
335,46	0,586
335,73	0,594
335,99	0,589
336,26	0,591
336,52	0,581
336,79	0,582
337,05	0,576
337,32	0,576
337,59	0,570
337,85	0,566
338,12	0,568
338,38	0,550
338,65	0,543
338,91	0,543
339,18	0,537
339,45	0,528
339,71	0,523
339,98	0,531
340,24	0,519
340,51	0,522
340,77	0,521
341,04	0,519
341,31	0,515
341,57	0,504
341,84	0,512
342,10	0,508
342,37	0,508
342,63	0,506
342,90	0,497
343,17	0,488
343,43	0,495
343,70	0,493
343,96	0,491
344,23	0,491
344,49	0,492
344,76	0,494
345,02	0,485
345,29	0,479
345,56	0,487
345,82	0,482
346,09	0,484
346,35	0,475
346,62	0,486
346,88	0,488
347,15	0,481
347,41	0,485
347,68	0,479
347,94	0,487
348,21	0,486
348,48	0,489
348,74	0,486
349,01	0,481
349,27	0,480
349,54	0,488
349,80	0,491
350,07	0,496
350,33	0,490
350,60	0,501
350,86	0,498
351,13	0,507
351,39	0,517
351,66	0,523
351,93	0,536
352,19	0,553
352,46	0,556
352,72	0,579
352,99	0,595
353,25	0,609
353,52	0,634
353,78	0,658
354,05	0,669
354,31	0,676
354,58	0,699
354,84	0,711
355,11	0,718
355,37	0,734
355,64	0,737
355,90	0,760
356,17	0,789
356,43	0,796
356,70	0,811
356,97	0,794
357,23	0,782
357,50	0,788
357,76	0,786
358,03	0,758
358,29	0,745
358,56	0,756
358,82	0,748
359,09	0,742
359,35	0,751
359,62	0,741
359,88	0,759
360,15	0,776
360,41	0,778
360,68	0,799
360,94	0,816
361,21	0,861
361,47	0,868
361,74	0,883
362,00	0,899
362,27	0,909
362,53	0,926
362,80	0,949
363,06	0,968
363,33	0,992
363,59	1,036
363,86	0,988
364,12	1,002
364,39	1,027
364,65	1,004
364,92	0,951
365,18	0,945
365,45	0,904
365,71	0,877
365,98	0,830
366,24	0,815
366,51	0,772
366,77	0,733
367,04	0,705
367,30	0,684
367,57	0,661
367,83	0,648
368,10	0,638
368,36	0,619
368,63	0,607
368,89	0,597
369,15	0,582
369,42	0,584
369,68	0,586
369,95	0,583
370,21	0,579
370,48	0,587
370,74	0,604
371,01	0,603
371,27	0,627
371,54	0,643
371,80	0,662
372,07	0,687
372,33	0,711
372,60	0,717
372,86	0,756
373,13	0,816
373,39	0,853
373,66	0,886
373,92	0,922
374,18	0,969
374,45	1,014
374,71	1,103
374,98	1,139
375,24	1,217
375,51	1,296
375,77	1,333
376,04	1,438
376,30	1,452
376,57	1,573
376,83	1,730
377,10	1,646
377,36	1,659
377,62	1,639
377,89	1,643
378,15	1,642
378,42	1,586
378,68	1,488
378,95	1,378
379,21	1,335
379,48	1,255
379,74	1,165
380,00	1,128
380,27	1,035
380,53	1,004
380,80	0,929
381,06	0,878
381,33	0,828
381,59	0,794
381,86	0,753
382,12	0,707
382,38	0,678
382,65	0,653
382,91	0,623
383,18	0,598
383,44	0,584
383,71	0,563
383,97	0,537
384,24	0,524
384,50	0,507
384,76	0,492
385,03	0,480
385,29	0,474
385,56	0,472
385,82	0,460
386,09	0,448
386,35	0,447
386,61	0,444
386,88	0,442
387,14	0,441
387,41	0,437
387,67	0,432
387,94	0,436
388,20	0,433
388,46	0,428
388,73	0,429
388,99	0,429
389,26	0,430
389,52	0,429
389,78	0,426
390,05	0,423
390,31	0,428
390,58	0,424
390,84	0,427
391,11	0,425
391,37	0,427
391,63	0,426
391,90	0,425
392,16	0,428
392,43	0,427
392,69	0,426
392,95	0,428
393,22	0,425
393,48	0,428
393,75	0,430
394,01	0,423
394,27	0,429
394,54	0,425
394,80	0,424
395,07	0,423
395,33	0,421
395,59	0,427
395,86	0,423
396,12	0,427
396,39	0,427
396,65	0,428
396,91	0,429
397,18	0,429
397,44	0,424
397,71	0,430
397,97	0,433
398,23	0,426
398,50	0,426
398,76	0,436
399,03	0,436
399,29	0,439
399,55	0,444
399,82	0,446
400,08	0,450
400,34	0,459
400,61	0,473
400,87	0,477
401,14	0,491
401,40	0,510
401,66	0,525
401,93	0,545
402,19	0,560
402,46	0,576
402,72	0,593
402,98	0,620
403,25	0,627
403,51	0,642
403,77	0,675
404,04	0,694
404,30	0,713
404,57	0,726
404,83	0,745
405,09	0,746
405,36	0,756
405,62	0,746
405,88	0,762
406,15	0,767
406,41	0,756
406,67	0,729
406,94	0,712
407,20	0,706
407,47	0,676
407,73	0,660
407,99	0,654
408,26	0,632
408,52	0,608
408,78	0,593
409,05	0,572
409,31	0,562
409,57	0,544
409,84	0,535
410,10	0,526
410,37	0,511
410,63	0,494
410,89	0,487
411,16	0,485
411,42	0,477
411,68	0,472
411,95	0,460
412,21	0,456
412,47	0,450
412,74	0,444
413,00	0,435
413,26	0,433
413,53	0,429
413,79	0,424
414,05	0,411
414,32	0,409
414,58	0,411
414,84	0,406
415,11	0,406
415,37	0,407
415,63	0,401
415,90	0,402
416,16	0,400
416,42	0,402
416,69	0,396
416,95	0,398
417,21	0,405
417,48	0,401
417,74	0,399
418,00	0,400
418,27	0,402
418,53	0,401
418,79	0,398
419,06	0,393
419,32	0,399
419,58	0,400
419,85	0,395
420,11	0,399
420,37	0,396
420,64	0,399
420,90	0,399
421,16	0,398
421,43	0,397
421,69	0,400
421,95	0,395
422,22	0,394
422,48	0,399
422,74	0,398
423,01	0,396
423,27	0,391
423,53	0,398
423,79	0,397
424,06	0,392
424,32	0,392
424,58	0,397
424,85	0,395
425,11	0,395
425,37	0,392
425,64	0,394
425,90	0,391
426,16	0,390
426,43	0,395
426,69	0,393
426,95	0,393
427,21	0,391
427,48	0,388
427,74	0,389
428,00	0,392
428,27	0,393
428,53	0,392
428,79	0,389
429,06	0,390
429,32	0,392
429,58	0,391
429,84	0,390
430,11	0,388
430,37	0,389
430,63	0,390
430,90	0,390
431,16	0,390
431,42	0,389
431,68	0,393
431,95	0,391
432,21	0,392
432,47	0,397
432,74	0,395
433,00	0,393
433,26	0,396
433,52	0,394
433,79	0,396
434,05	0,402
434,31	0,398
434,58	0,401
434,84	0,400
435,10	0,408
435,36	0,407
435,63	0,412
435,89	0,410
436,15	0,415
436,41	0,423
436,68	0,429
436,94	0,434
437,20	0,444
437,47	0,448
437,73	0,458
437,99	0,475
438,25	0,490
438,52	0,497
438,78	0,516
439,04	0,522
439,30	0,539
439,57	0,555
439,83	0,565
440,09	0,580
440,35	0,592
440,62	0,605
440,88	0,602
441,14	0,622
441,41	0,627
441,67	0,640
441,93	0,636
442,19	0,639
442,46	0,649
442,72	0,638
442,98	0,654
443,24	0,646
443,51	0,628
443,77	0,640
444,03	0,635
444,29	0,631
444,56	0,632
444,82	0,630
445,08	0,644
445,34	0,650
445,61	0,654
445,87	0,671
446,13	0,687
446,39	0,683
446,65	0,707
446,92	0,724
447,18	0,739
447,44	0,750
447,70	0,747
447,97	0,760
448,23	0,754
448,49	0,756
448,75	0,767
449,02	0,771
449,28	0,771
449,54	0,761
449,80	0,772
450,07	0,760
450,33	0,754
450,59	0,759
450,85	0,740
451,11	0,727
451,38	0,710
451,64	0,688
451,90	0,674
452,16	0,656
452,43	0,635
452,69	0,622
452,95	0,607
453,21	0,588
453,47	0,577
453,74	0,562
454,00	0,544
454,26	0,535
454,52	0,515
454,79	0,504
455,05	0,489
455,31	0,478
455,57	0,462
455,83	0,449
456,10	0,443
456,36	0,433
456,62	0,427
456,88	0,413
457,14	0,408
457,41	0,402
457,67	0,395
457,93	0,390
458,19	0,384
458,45	0,382
458,72	0,380
458,98	0,378
459,24	0,377
459,50	0,373
459,76	0,374
460,03	0,374
460,29	0,371
460,55	0,371
460,81	0,371
461,07	0,370
461,34	0,371
461,60	0,370
461,86	0,371
462,12	0,367
462,38	0,370
462,65	0,372
462,91	0,369
463,17	0,368
463,43	0,368
463,69	0,368
463,96	0,369
464,22	0,370
464,48	0,370
464,74	0,369
465,00	0,370
465,26	0,367
465,53	0,369
465,79	0,368
466,05	0,369
466,31	0,368
466,57	0,368
466,84	0,369
467,10	0,370
467,36	0,371
467,62	0,370
467,88	0,372
468,14	0,371
468,41	0,371
468,67	0,370
468,93	0,371
469,19	0,370
469,45	0,371
469,71	0,372
469,98	0,370
470,24	0,371
470,50	0,372
470,76	0,372
471,02	0,371
471,28	0,373
471,55	0,372
471,81	0,374
472,07	0,374
472,33	0,372
472,59	0,375
472,85	0,375
473,12	0,376
473,38	0,377
473,64	0,378
473,90	0,379
474,16	0,381
474,42	0,381
474,68	0,382
474,95	0,385
475,21	0,387
475,47	0,389
475,73	0,390
475,99	0,393
476,25	0,396
476,52	0,400
476,78	0,403
477,04	0,406
477,30	0,409
477,56	0,415
477,82	0,420
478,08	0,425
478,35	0,431
478,61	0,439
478,87	0,449
479,13	0,458
479,39	0,469
479,65	0,482
479,91	0,494
480,17	0,512
480,44	0,529
480,70	0,550
480,96	0,571
481,22	0,597
481,48	0,625
481,74	0,654
482,00	0,685
482,27	0,718
482,53	0,755
482,79	0,798
483,05	0,840
483,31	0,881
483,57	0,936
483,83	0,981
484,09	1,035
484,36	1,094
484,62	1,145
484,88	1,194
485,14	1,239
485,40	1,276
485,66	1,303
485,92	1,332
486,18	1,334
486,44	1,348
486,71	1,351
486,97	1,341
487,23	1,350
487,49	1,332
487,75	1,321
488,01	1,310
488,27	1,285
488,53	1,247
488,79	1,220
489,06	1,196
489,32	1,186
489,58	1,141
489,84	1,114
490,10	1,082
490,36	1,054
490,62	1,025
490,88	0,998
491,14	0,962
491,40	0,931
491,67	0,890
491,93	0,852
492,19	0,821
492,45	0,779
492,71	0,744
492,97	0,709
493,23	0,679
493,49	0,648
493,75	0,619
494,01	0,590
494,28	0,563
494,54	0,539
494,80	0,515
495,06	0,496
495,32	0,476
495,58	0,458
495,84	0,442
496,10	0,429
496,36	0,416
496,62	0,408
496,88	0,401
497,14	0,394
497,41	0,387
497,67	0,382
497,93	0,379
498,19	0,376
498,45	0,374
498,71	0,372
498,97	0,370
499,23	0,369
499,49	0,368
499,75	0,368
500,01	0,367
500,27	0,367
500,53	0,366
500,80	0,366
501,06	0,364
501,32	0,365
501,58	0,365
501,84	0,365
502,10	0,364
502,36	0,364
502,62	0,365
502,88	0,365
503,14	0,365
503,40	0,366
503,66	0,365
503,92	0,365
504,18	0,367
504,44	0,368
504,70	0,367
504,97	0,371
505,23	0,371
505,49	0,372
505,75	0,374
506,01	0,375
506,27	0,377
506,53	0,381
506,79	0,383
507,05	0,386
507,31	0,388
507,57	0,391
507,83	0,396
508,09	0,401
508,35	0,404
508,61	0,410
508,87	0,413
509,13	0,419
509,39	0,425
509,65	0,429
509,91	0,437
510,17	0,443
510,43	0,450
510,70	0,458
510,96	0,467
511,22	0,475
511,48	0,486
511,74	0,495
512,00	0,507
512,26	0,517
512,52	0,531
512,78	0,546
513,04	0,557
513,30	0,575
513,56	0,590
513,82	0,610
514,08	0,631
514,34	0,655
514,60	0,680
514,86	0,707
515,12	0,737
515,38	0,758
515,64	0,801
515,90	0,832
516,16	0,864
516,42	0,914
516,68	0,947
516,94	0,977
517,20	1,045
517,46	1,078
517,72	1,134
517,98	1,198
518,24	1,252
518,50	1,322
518,76	1,390
519,02	1,478
519,28	1,532
519,54	1,595
519,80	1,663
520,06	1,726
520,32	1,778
520,58	1,755
520,84	1,773
521,10	1,712
521,36	1,653
521,62	1,608
521,88	1,590
522,14	1,541
522,40	1,466
522,66	1,367
522,92	1,304
523,18	1,237
523,44	1,182
523,70	1,127
523,96	1,072
524,22	1,040
524,48	0,982
524,74	0,943
525,00	0,897
525,26	0,859
525,52	0,821
525,78	0,790
526,04	0,753
526,30	0,724
526,56	0,693
526,82	0,664
527,08	0,641
527,34	0,616
527,60	0,597
527,86	0,575
528,12	0,554
528,38	0,536
528,64	0,519
528,90	0,504
529,16	0,488
529,42	0,477
529,68	0,463
529,94	0,453
530,20	0,443
530,46	0,433
530,72	0,427
530,98	0,419
531,24	0,413
531,50	0,408
531,76	0,403
532,02	0,400
532,28	0,396
532,54	0,393
532,80	0,391
533,06	0,388
533,32	0,390
533,58	0,389
533,84	0,390
534,10	0,390
534,35	0,391
534,61	0,395
534,87	0,398
535,13	0,402
535,39	0,408
535,65	0,414
535,91	0,420
536,17	0,430
536,43	0,441
536,69	0,455
536,95	0,470
537,21	0,485
537,47	0,504
537,73	0,524
537,99	0,543
538,25	0,561
538,51	0,579
538,77	0,603
539,03	0,622
539,29	0,641
539,55	0,659
539,80	0,670
540,06	0,688
540,32	0,696
540,58	0,699
540,84	0,707
541,10	0,705
541,36	0,696
541,62	0,693
541,88	0,682
542,14	0,663
542,40	0,649
542,66	0,641
542,92	0,618
543,18	0,606
543,44	0,587
543,70	0,570
543,95	0,556
544,21	0,549
544,47	0,542
544,73	0,532
544,99	0,525
545,25	0,521
545,51	0,516
545,77	0,513
546,03	0,510
546,29	0,508
546,55	0,504
546,81	0,501
547,07	0,496
547,32	0,496
547,58	0,492
547,84	0,486
548,10	0,487
548,36	0,481
548,62	0,476
548,88	0,472
549,14	0,462
549,40	0,457
549,66	0,451
549,92	0,444
550,18	0,429
550,43	0,422
550,69	0,414
550,95	0,405
551,21	0,399
551,47	0,387
551,73	0,379
551,99	0,374
552,25	0,366
552,51	0,360
552,77	0,355
553,03	0,349
553,28	0,344
553,54	0,343
553,80	0,336
554,06	0,332
554,32	0,328
554,58	0,326
554,84	0,325
555,10	0,322
555,36	0,321
555,61	0,318
555,87	0,318
556,13	0,318
556,39	0,316
556,65	0,316
556,91	0,315
557,17	0,314
557,43	0,314
557,69	0,314
557,94	0,314
558,20	0,314
558,46	0,314
558,72	0,313
558,98	0,312
559,24	0,311
559,50	0,312
559,76	0,312
560,02	0,311
560,27	0,311
560,53	0,311
560,79	0,311
561,05	0,311
561,31	0,311
561,57	0,310
561,83	0,310
562,09	0,309
562,34	0,309
562,60	0,309
562,86	0,309
563,12	0,308
563,38	0,309
563,64	0,309
563,90	0,307
564,15	0,308
564,41	0,308
564,67	0,307
564,93	0,309
565,19	0,307
565,45	0,305
565,71	0,306
565,97	0,306
566,22	0,307
566,48	0,306
566,74	0,308
567,00	0,306
567,26	0,307
567,52	0,307
567,78	0,306
568,03	0,306
568,29	0,306
568,55	0,306
568,81	0,306
569,07	0,306
569,33	0,306
569,58	0,306
569,84	0,305
570,10	0,306
570,36	0,305
570,62	0,306
570,88	0,305
571,14	0,305
571,39	0,305
571,65	0,305
571,91	0,305
572,17	0,304
572,43	0,304
572,69	0,305
572,94	0,303
573,20	0,304
573,46	0,303
573,72	0,304
573,98	0,304
574,24	0,304
574,49	0,303
574,75	0,304
575,01	0,303
575,27	0,303
575,53	0,303
575,79	0,302
576,04	0,302
576,30	0,301
576,56	0,301
576,82	0,301
577,08	0,301
577,33	0,302
577,59	0,300
577,85	0,301
578,11	0,301
578,37	0,301
578,63	0,301
578,88	0,301
579,14	0,301
579,40	0,300
579,66	0,300
579,92	0,301
580,17	0,301
580,43	0,300
580,69	0,299
580,95	0,300
581,21	0,300
581,47	0,300
581,72	0,299
581,98	0,299
582,24	0,300
582,50	0,298
582,76	0,299
583,01	0,300
583,27	0,299
583,53	0,298
583,79	0,299
584,05	0,299
584,30	0,299
584,56	0,300
584,82	0,299
585,08	0,298
585,34	0,299
585,59	0,299
585,85	0,298
586,11	0,298
586,37	0,300
586,63	0,297
586,88	0,298
587,14	0,298
587,40	0,298
587,66	0,298
587,91	0,297
588,17	0,298
588,43	0,297
588,69	0,298
588,95	0,297
589,20	0,297
589,46	0,296
589,72	0,296
589,98	0,296
590,24	0,295
590,49	0,296
590,75	0,296
591,01	0,296
591,27	0,296
591,52	0,296
591,78	0,295
592,04	0,295
592,30	0,297
592,55	0,295
592,81	0,295
593,07	0,294
593,33	0,294
593,59	0,295
593,84	0,295
594,10	0,294
594,36	0,294
594,62	0,294
594,87	0,294
595,13	0,294
595,39	0,295
595,65	0,294
595,90	0,294
596,16	0,294
596,42	0,295
596,68	0,294
596,93	0,294
597,19	0,293
597,45	0,295
597,71	0,294
597,97	0,293
598,22	0,293
598,48	0,294
598,74	0,292
599,00	0,293
599,25	0,294
599,51	0,293
599,77	0,292
600,03	0,292
600,28	0,291
600,54	0,293
600,80	0,292
601,05	0,292
601,31	0,291
601,57	0,292
601,83	0,292
602,08	0,292
602,34	0,291
602,60	0,291
602,86	0,291
603,11	0,291
603,37	0,291
603,63	0,291
603,89	0,291
604,14	0,291
604,40	0,291
604,66	0,291
604,92	0,290
605,17	0,291
605,43	0,290
605,69	0,290
605,94	0,290
606,20	0,290
606,46	0,290
606,72	0,289
606,97	0,289
607,23	0,289
607,49	0,289
607,75	0,290
608,00	0,289
608,26	0,290
608,52	0,290
608,77	0,290
609,03	0,289
609,29	0,289
609,55	0,289
609,80	0,289
610,06	0,289
610,32	0,289
610,57	0,288
610,83	0,289
611,09	0,288
611,35	0,288
611,60	0,289
611,86	0,289
612,12	0,289
612,37	0,289
612,63	0,288
612,89	0,288
613,15	0,289
613,40	0,289
613,66	0,289
613,92	0,290
614,17	0,288
614,43	0,289
614,69	0,290
614,94	0,289
615,20	0,290
615,46	0,290
615,72	0,290
615,97	0,291
616,23	0,290
616,49	0,289
616,74	0,290
617,00	0,290
617,26	0,290
617,51	0,291
617,77	0,289
618,03	0,291
618,28	0,291
618,54	0,291
618,80	0,292
619,05	0,291
619,31	0,291
619,57	0,292
619,83	0,291
620,08	0,290
620,34	0,291
620,60	0,291
620,85	0,292
621,11	0,291
621,37	0,291
621,62	0,292
621,88	0,292
622,14	0,292
622,39	0,292
622,65	0,292
622,91	0,292
623,16	0,292
623,42	0,292
623,68	0,292
623,93	0,292
624,19	0,292
624,45	0,292
624,70	0,292
624,96	0,292
625,22	0,292
625,47	0,293
625,73	0,293
625,99	0,293
626,24	0,292
626,50	0,292
626,76	0,293
627,01	0,293
627,27	0,293
627,53	0,294
627,78	0,294
628,04	0,294
628,30	0,294
628,55	0,294
628,81	0,294
629,07	0,294
629,32	0,295
629,58	0,296
629,83	0,296
630,09	0,296
630,35	0,297
630,60	0,296
630,86	0,297
631,12	0,298
631,37	0,299
631,63	0,300
631,89	0,300
632,14	0,300
632,40	0,301
632,66	0,302
632,91	0,303
633,17	0,303
633,42	0,305
633,68	0,305
633,94	0,307
634,19	0,309
634,45	0,310
634,71	0,311
634,96	0,312
635,22	0,314
635,48	0,315
635,73	0,317
635,99	0,319
636,24	0,321
636,50	0,324
636,76	0,325
637,01	0,327
637,27	0,329
637,53	0,331
637,78	0,334
638,04	0,337
638,29	0,339
638,55	0,342
638,81	0,346
639,06	0,350
639,32	0,353
639,57	0,358
639,83	0,363
640,09	0,367
640,34	0,373
640,60	0,379
640,86	0,386
641,11	0,393
641,37	0,402
641,62	0,412
641,88	0,422
642,14	0,433
642,39	0,446
642,65	0,462
642,90	0,478
643,16	0,499
643,42	0,517
643,67	0,540
643,93	0,562
644,18	0,589
644,44	0,618
644,70	0,649
644,95	0,679
645,21	0,712
645,46	0,747
645,72	0,782
645,98	0,827
646,23	0,865
646,49	0,909
646,74	0,962
647,00	1,011
647,26	1,066
647,51	1,124
647,77	1,180
648,02	1,242
648,28	1,293
648,54	1,348
648,79	1,399
649,05	1,460
649,30	1,514
649,56	1,547
649,81	1,576
650,07	1,641
650,33	1,606
650,58	1,648
650,84	1,620
651,09	1,643
651,35	1,637
651,60	1,627
651,86	1,608
652,12	1,581
652,37	1,573
652,63	1,513
652,88	1,486
653,14	1,419
653,39	1,380
653,65	1,343
653,91	1,294
654,16	1,262
654,42	1,222
654,67	1,188
654,93	1,151
655,18	1,118
655,44	1,093
655,70	1,067
655,95	1,044
656,21	1,011
656,46	0,989
656,72	0,973
656,97	0,950
657,23	0,934
657,49	0,917
657,74	0,902
658,00	0,894
658,25	0,881
658,51	0,869
658,76	0,862
659,02	0,854
659,27	0,847
659,53	0,839
659,78	0,833
660,04	0,827
660,30	0,824
660,55	0,820
660,81	0,813
661,06	0,809
661,32	0,806
661,57	0,805
661,83	0,803
662,08	0,803
662,34	0,803
662,59	0,803
662,85	0,798
663,11	0,797
663,36	0,796
663,62	0,791
663,87	0,786
664,13	0,780
664,38	0,773
664,64	0,762
664,89	0,751
665,15	0,735
665,40	0,718
665,66	0,702
665,91	0,683
666,17	0,663
666,42	0,643
666,68	0,621
666,93	0,600
667,19	0,577
667,45	0,555
667,70	0,535
667,96	0,513
668,21	0,494
668,47	0,475
668,72	0,456
668,98	0,438
669,23	0,420
669,49	0,405
669,74	0,391
670,00	0,378
670,25	0,365
670,51	0,354
670,76	0,345
671,02	0,335
671,27	0,328
671,53	0,320
671,78	0,315
672,04	0,310
672,29	0,304
672,55	0,300
672,80	0,297
673,06	0,293
673,31	0,290
673,57	0,288
673,82	0,285
674,08	0,283
674,33	0,281
674,59	0,279
674,84	0,278
675,10	0,277
675,35	0,276
675,61	0,274
675,86	0,273
676,12	0,272
676,37	0,271
676,63	0,271
676,88	0,270
677,14	0,269
677,39	0,269
677,65	0,268
677,90	0,268
678,16	0,267
678,41	0,267
678,67	0,266
678,92	0,266
679,18	0,266
679,43	0,265
679,69	0,265
679,94	0,264
680,20	0,264
680,45	0,263
680,71	0,264
680,96	0,263
681,21	0,263
681,47	0,262
681,72	0,262
681,98	0,262
682,23	0,262
682,49	0,262
682,74	0,262
683,00	0,262
683,25	0,261
683,51	0,261
683,76	0,261
684,02	0,261
684,27	0,261
684,53	0,260
684,78	0,260
685,04	0,260
685,29	0,260
685,54	0,260
685,80	0,260
686,05	0,259
686,31	0,259
686,56	0,259
686,82	0,259
687,07	0,259
687,33	0,258
687,58	0,259
687,84	0,259
688,09	0,259
688,34	0,258
688,60	0,259
688,85	0,259
689,11	0,259
689,36	0,258
689,62	0,258
689,87	0,257
690,13	0,258
690,38	0,257
690,64	0,257
690,89	0,257
691,14	0,257
691,40	0,257
691,65	0,257
691,91	0,257
692,16	0,257
692,42	0,257
692,67	0,256
692,92	0,257
693,18	0,256
693,43	0,256
693,69	0,256
693,94	0,256
694,20	0,255
694,45	0,255
694,71	0,255
694,96	0,256
695,21	0,256
695,47	0,255
695,72	0,255
695,98	0,255
696,23	0,255
696,48	0,255
696,74	0,255
696,99	0,255
697,25	0,255
697,50	0,255
697,76	0,255
698,01	0,255
698,26	0,255
698,52	0,254
698,77	0,254
699,03	0,255
699,28	0,255
699,54	0,254
699,79	0,254
700,04	0,254
700,30	0,254
700,55	0,254
700,81	0,254
701,06	0,254
701,31	0,253
701,57	0,254
701,82	0,254
702,08	0,253
702,33	0,253
702,58	0,253
702,84	0,253
703,09	0,253
703,35	0,253
703,60	0,253
703,85	0,253
704,11	0,253
704,36	0,252
704,62	0,253
704,87	0,253
705,12	0,253
705,38	0,252
705,63	0,253
705,89	0,252
706,14	0,252
706,39	0,253
706,65	0,252
706,90	0,252
707,16	0,252
707,41	0,252
707,66	0,251
707,92	0,251
708,17	0,251
708,42	0,251
708,68	0,251
708,93	0,251
709,19	0,251
709,44	0,251
709,69	0,251
709,95	0,251
710,20	0,250
710,46	0,250
710,71	0,250
710,96	0,250
711,22	0,251
711,47	0,250
711,72	0,250
711,98	0,250
712,23	0,250
712,48	0,250
712,74	0,250
712,99	0,251
713,25	0,250
713,50	0,250
713,75	0,250
714,01	0,249
714,26	0,250
714,51	0,249
714,77	0,250
715,02	0,249
715,28	0,249
715,53	0,250
715,78	0,249
716,04	0,248
716,29	0,249
716,54	0,249
716,80	0,249
717,05	0,248
717,30	0,249
717,56	0,249
717,81	0,248
718,06	0,249
718,32	0,248
718,57	0,248
718,82	0,249
719,08	0,249
719,33	0,248
719,58	0,248
719,84	0,248
720,09	0,248
720,35	0,248
720,60	0,248
720,85	0,248
721,11	0,248
721,36	0,248
721,61	0,248
721,87	0,247
722,12	0,247
722,37	0,248
722,63	0,247
722,88	0,247
723,13	0,247
723,39	0,247
723,64	0,247
723,89	0,247
724,15	0,247
724,40	0,247
724,65	0,247
724,91	0,247
725,16	0,247
725,41	0,247
725,67	0,246
725,92	0,246
726,17	0,247
726,42	0,246
726,68	0,247
726,93	0,247
727,18	0,247
727,44	0,247
727,69	0,247
727,94	0,247
728,20	0,247
728,45	0,246
728,70	0,246
728,96	0,246
729,21	0,246
729,46	0,246
729,72	0,246
729,97	0,246
730,22	0,246
730,48	0,246
730,73	0,246
730,98	0,246
731,23	0,245
731,49	0,245
731,74	0,245
731,99	0,245
732,25	0,246
732,50	0,245
732,75	0,245
733,01	0,246
733,26	0,244
733,51	0,245
733,76	0,246
734,02	0,245
734,27	0,244
734,52	0,244
734,78	0,245
735,03	0,244
735,28	0,244
735,54	0,244
735,79	0,244
736,04	0,245
736,29	0,245
736,55	0,244
736,80	0,244
737,05	0,245
737,31	0,244
737,56	0,245
737,81	0,245
738,06	0,245
738,32	0,244
738,57	0,244
738,82	0,245
739,07	0,244
739,33	0,244
739,58	0,244
739,83	0,245
740,09	0,244
740,34	0,244
740,59	0,244
740,84	0,244
741,10	0,243
741,35	0,244
741,60	0,243
741,86	0,243
742,11	0,243
742,36	0,243
742,61	0,244
742,87	0,243
743,12	0,243
743,37	0,243
743,62	0,243
743,88	0,243
744,13	0,243
744,38	0,243
744,63	0,243
744,89	0,243
745,14	0,242
745,39	0,243
745,64	0,243
745,90	0,243
746,15	0,242
746,40	0,242
746,65	0,242
746,91	0,242
747,16	0,242
747,41	0,242
747,66	0,242
747,92	0,242
748,17	0,243
748,42	0,242
748,67	0,243
748,93	0,242
749,18	0,241
749,43	0,242
749,68	0,241
749,94	0,241
750,19	0,242
750,44	0,242
750,69	0,241
750,95	0,241
751,20	0,241
751,45	0,241
751,70	0,242
751,96	0,242
752,21	0,242
752,46	0,241
752,71	0,241
752,96	0,241
753,22	0,241
753,47	0,240
753,72	0,240
753,97	0,241
754,23	0,240
754,48	0,240
754,73	0,241
754,98	0,241
755,24	0,240
755,49	0,240
755,74	0,240
755,99	0,240
756,24	0,240
756,50	0,240
756,75	0,239
757,00	0,239
757,25	0,239
757,50	0,239
757,76	0,239
758,01	0,239
758,26	0,239
758,51	0,239
758,77	0,239
759,02	0,239
759,27	0,239
759,52	0,240
759,77	0,239
760,03	0,238
760,28	0,238
760,53	0,239
760,78	0,239
761,03	0,239
761,29	0,239
761,54	0,238
761,79	0,239
762,04	0,239
762,29	0,238
762,55	0,238
762,80	0,238
763,05	0,238
763,30	0,238
763,55	0,237
763,81	0,238
764,06	0,238
764,31	0,238
764,56	0,238
764,81	0,238
765,07	0,238
765,32	0,237
765,57	0,237
765,82	0,238
766,07	0,238
766,32	0,237
766,58	0,237
766,83	0,237
767,08	0,237
767,33	0,237
767,58	0,237
767,84	0,236
768,09	0,237
768,34	0,237
768,59	0,237
768,84	0,237
769,09	0,237
769,35	0,237
769,60	0,237
769,85	0,237
770,10	0,237
770,35	0,237
770,60	0,237
770,86	0,237
771,11	0,237
771,36	0,236
771,61	0,237
771,86	0,237
772,11	0,237
772,37	0,237
772,62	0,237
772,87	0,237
773,12	0,238
773,37	0,238
773,62	0,237
773,88	0,238
774,13	0,238
774,38	0,237
774,63	0,238
774,88	0,238
775,13	0,238
775,38	0,238
775,64	0,238
775,89	0,238
776,14	0,238
776,39	0,239
776,64	0,238
776,89	0,239
777,15	0,239
777,40	0,239
777,65	0,239
777,90	0,239
778,15	0,240
778,40	0,239
778,65	0,239
778,91	0,240
779,16	0,239
779,41	0,240
779,66	0,239
779,91	0,241
780,16	0,240
780,41	0,240
780,66	0,241
780,92	0,242
781,17	0,242
781,42	0,242
781,67	0,242
781,92	0,243
782,17	0,243
782,42	0,244
782,68	0,244
782,93	0,245
783,18	0,245
783,43	0,245
783,68	0,246
783,93	0,246
784,18	0,248
784,43	0,248
784,69	0,249
784,94	0,250
785,19	0,251
785,44	0,252
785,69	0,254
785,94	0,255
786,19	0,257
786,44	0,258
786,69	0,261
786,95	0,263
787,20	0,265
787,45	0,268
787,70	0,271
787,95	0,273
788,20	0,276
788,45	0,281
788,70	0,285
788,95	0,289
789,21	0,294
789,46	0,298
789,71	0,304
789,96	0,309
790,21	0,313
790,46	0,318
790,71	0,323
790,96	0,329
791,21	0,333
791,46	0,337
791,72	0,342
791,97	0,346
792,22	0,350
792,47	0,354
792,72	0,357
792,97	0,361
793,22	0,362
793,47	0,366
793,72	0,369
793,97	0,370
794,22	0,373
794,47	0,376
794,73	0,376
794,98	0,378
795,23	0,380
795,48	0,381
795,73	0,384
795,98	0,387
796,23	0,390
796,48	0,392
796,73	0,396
796,98	0,399
797,23	0,403
797,48	0,407
797,74	0,413
797,99	0,419
798,24	0,423
798,49	0,427
798,74	0,434
798,99	0,441
799,24	0,444
799,49	0,449
799,74	0,453
799,99	0,455
800,24	0,461
800,49	0,463
800,74	0,464
800,99	0,465
801,24	0,465
801,50	0,464
801,75	0,462
802,00	0,459
802,25	0,456
802,50	0,450
802,75	0,445
803,00	0,439
803,25	0,432
803,50	0,425
803,75	0,417
804,00	0,410
804,25	0,401
804,50	0,393
804,75	0,385
805,00	0,377
805,25	0,369
805,50	0,362
805,75	0,355
806,00	0,349
806,26	0,343
806,51	0,338
806,76	0,333
807,01	0,328
807,26	0,325
807,51	0,320
807,76	0,317
808,01	0,315
808,26	0,313
808,51	0,310
808,76	0,308
809,01	0,306
809,26	0,304
809,51	0,302
809,76	0,301
810,01	0,301
810,26	0,299
810,51	0,299
810,76	0,299
811,01	0,298
811,26	0,298
811,51	0,298
811,76	0,298
812,01	0,298
812,26	0,299
812,51	0,299
812,76	0,298
813,01	0,298
813,26	0,299
813,51	0,299
813,76	0,299
814,01	0,298
814,26	0,300
814,51	0,300
814,76	0,300
815,02	0,300
815,27	0,300
815,52	0,300
815,77	0,300
816,02	0,300
816,27	0,299
816,52	0,299
816,77	0,298
817,02	0,297
817,27	0,298
817,52	0,297
817,77	0,295
818,02	0,294
818,27	0,293
818,52	0,292
818,77	0,291
819,02	0,290
819,27	0,290
819,52	0,287
819,77	0,286
820,02	0,285
820,27	0,284
820,52	0,282
820,77	0,282
821,02	0,281
821,27	0,278
821,52	0,278
821,77	0,278
822,02	0,277
822,26	0,276
822,51	0,273
822,76	0,273
823,01	0,272
823,26	0,270
823,51	0,269
823,76	0,268
824,01	0,267
824,26	0,266
824,51	0,264
824,76	0,262
825,01	0,261
825,26	0,258
825,51	0,258
825,76	0,256
826,01	0,255
826,26	0,252
826,51	0,251
826,76	0,250
827,01	0,249
827,26	0,246
827,51	0,245
827,76	0,243
828,01	0,241
828,26	0,240
828,51	0,239
828,76	0,237
829,01	0,236
829,26	0,235
829,51	0,233
829,76	0,231
830,01	0,230
830,26	0,230
830,51	0,230
830,76	0,229
831,00	0,228
831,25	0,227
831,50	0,226
831,75	0,226
832,00	0,225
832,25	0,224
832,50	0,224
832,75	0,223
833,00	0,222
833,25	0,222
833,50	0,222
833,75	0,222
834,00	0,221
834,25	0,222
834,50	0,221
834,75	0,221
835,00	0,219
835,25	0,220
835,50	0,220
835,74	0,220
835,99	0,219
836,24	0,219
836,49	0,219
836,74	0,219
836,99	0,219
837,24	0,219
837,49	0,218
837,74	0,219
837,99	0,219
838,24	0,218
838,49	0,219
838,74	0,217
838,99	0,217
839,24	0,217
839,48	0,218
839,73	0,218
839,98	0,217
840,23	0,217
840,48	0,217
840,73	0,217
840,98	0,217
841,23	0,216
841,48	0,216
841,73	0,216
841,98	0,216
842,23	0,216
842,48	0,216
842,72	0,217
842,97	0,216
843,22	0,215
843,47	0,216
843,72	0,215
843,97	0,215
844,22	0,216
844,47	0,215
844,72	0,216
844,97	0,217
845,22	0,216
845,46	0,216
845,71	0,216
845,96	0,215
846,21	0,215
846,46	0,214
846,71	0,215
846,96	0,214
847,21	0,215
847,46	0,215
847,71	0,215
847,95	0,215
848,20	0,214
848,45	0,215
848,70	0,214
848,95	0,214
849,20	0,215
849,45	0,216
849,70	0,215
849,95	0,215
850,19	0,214
850,44	0,214
850,69	0,215
850,94	0,214
851,19	0,214
851,44	0,214
851,69	0,213
851,94	0,214
852,19	0,214
852,43	0,214
852,68	0,214
852,93	0,214
853,18	0,213
853,43	0,214
853,68	0,215
853,93	0,213
854,18	0,212
854,42	0,214
854,67	0,213
854,92	0,213
855,17	0,213
855,42	0,213
855,67	0,212
855,92	0,212
856,16	0,213
856,41	0,213
856,66	0,213
856,91	0,212
857,16	0,212
857,41	0,213
857,66	0,212
857,91	0,212
858,15	0,213
858,40	0,213
858,65	0,214
858,90	0,213
859,15	0,214
859,40	0,214
859,65	0,212
859,89	0,213
860,14	0,213
860,39	0,212
860,64	0,212
860,89	0,212
861,14	0,212
861,38	0,212
861,63	0,212
861,88	0,212
862,13	0,212
862,38	0,212
862,63	0,212
862,88	0,212
863,12	0,211
863,37	0,212
863,62	0,212
863,87	0,212
864,12	0,212
864,37	0,212
864,61	0,212
864,86	0,212
865,11	0,213
865,36	0,213
865,61	0,212
865,86	0,212
866,10	0,212
866,35	0,212
866,60	0,212
866,85	0,211
867,10	0,211
867,35	0,212
867,59	0,212
867,84	0,211
868,09	0,212
868,34	0,211
868,59	0,211
868,83	0,211
869,08	0,211
869,33	0,211
869,58	0,212
869,83	0,212
870,08	0,212
870,32	0,211
870,57	0,211
870,82	0,211
871,07	0,211
871,32	0,211
871,56	0,211
871,81	0,211
872,06	0,211
872,31	0,210
872,56	0,210
872,81	0,210
873,05	0,210
873,30	0,210
873,55	0,210
873,80	0,210
874,05	0,211
874,29	0,210
874,54	0,210
874,79	0,210
875,04	0,210
875,29	0,211
875,53	0,209
875,78	0,209
876,03	0,210
876,28	0,210
876,52	0,210
876,77	0,209
877,02	0,210
877,27	0,211
877,52	0,211
877,76	0,210
878,01	0,210
878,26	0,210
878,51	0,211
878,76	0,211
879,00	0,210
879,25	0,210
879,50	0,210
879,75	0,210
880,00	0,210
880,24	0,210
880,49	0,209
880,74	0,209
880,99	0,210
881,23	0,210
881,48	0,209
881,73	0,210
881,98	0,210
882,22	0,210
882,47	0,209
882,72	0,209
882,97	0,209
883,22	0,210
883,46	0,211
883,71	0,209
883,96	0,210
884,21	0,210
884,45	0,210
884,70	0,210
884,95	0,210
885,20	0,210
885,44	0,211
885,69	0,210
885,94	0,210
886,19	0,210
886,43	0,211
886,68	0,211
886,93	0,211
887,18	0,211
887,42	0,211
887,67	0,211
887,92	0,210
888,17	0,210
888,42	0,210
888,66	0,210
888,91	0,210
889,16	0,210
889,40	0,209
889,65	0,210
889,90	0,209
890,15	0,209
890,39	0,210
890,64	0,210
890,89	0,210
891,14	0,209
891,38	0,210
891,63	0,210
891,88	0,209
892,13	0,210
892,37	0,209
892,62	0,210
892,87	0,210
893,12	0,209
893,36	0,210
893,61	0,210
893,86	0,210
894,11	0,210
894,35	0,210
894,60	0,210
894,85	0,210
895,09	0,209
895,34	0,211
895,59	0,209
895,84	0,210
896,08	0,210
896,33	0,210
896,58	0,210
896,82	0,210
897,07	0,210
897,32	0,211
897,57	0,209
897,81	0,210
898,06	0,211
898,31	0,210
898,55	0,209
898,80	0,210
899,05	0,210
899,30	0,210
899,54	0,210
899,79	0,210
900,04	0,209
900,28	0,209
900,53	0,210
900,78	0,209
901,03	0,208
901,27	0,209
901,52	0,209
901,77	0,209
902,01	0,209
902,26	0,208
902,51	0,209
902,75	0,209
903,00	0,208
903,25	0,209
903,50	0,208
903,74	0,208
903,99	0,208
904,24	0,207
904,48	0,208
904,73	0,208
904,98	0,208
905,22	0,207
905,47	0,207
905,72	0,208
905,96	0,207
906,21	0,207
906,46	0,208
906,70	0,207
906,95	0,207
907,20	0,207
907,45	0,207
907,69	0,206
907,94	0,206
908,19	0,207
908,43	0,206
908,68	0,206
908,93	0,207
909,17	0,207
909,42	0,206
909,67	0,206
909,91	0,206
910,16	0,206
910,41	0,206
910,65	0,205
910,90	0,206
911,15	0,205
911,39	0,206
911,64	0,205
911,89	0,205
912,13	0,204
912,38	0,205
912,63	0,204
912,87	0,204
913,12	0,205
913,37	0,205
913,61	0,204
913,86	0,204
914,11	0,204
914,35	0,204
914,60	0,204
914,85	0,203
915,09	0,203
915,34	0,203
915,58	0,203
915,83	0,203
916,08	0,203
916,32	0,203
916,57	0,203
916,82	0,202
917,06	0,202
917,31	0,202
917,56	0,202
917,80	0,202
918,05	0,202
918,30	0,201
918,54	0,201
918,79	0,202
919,04	0,202
919,28	0,201
919,53	0,201
919,77	0,201
920,02	0,201
920,27	0,200
920,51	0,200
920,76	0,200
921,01	0,200
921,25	0,199
921,50	0,200
921,74	0,199
921,99	0,199
922,24	0,199
922,48	0,199
922,73	0,199
922,98	0,199
923,22	0,198
923,47	0,199
923,71	0,198
923,96	0,198
924,21	0,198
924,45	0,197
924,70	0,197
924,95	0,197
925,19	0,197
925,44	0,197
925,68	0,197
925,93	0,197
926,18	0,197
926,42	0,196
926,67	0,197
926,91	0,196
927,16	0,196
927,41	0,195
927,65	0,196
927,90	0,195
928,14	0,195
928,39	0,195
928,64	0,195
928,88	0,195
929,13	0,195
929,37	0,194
929,62	0,195
929,87	0,195
930,11	0,195
930,36	0,195
930,60	0,195
930,85	0,194
931,10	0,194
931,34	0,194
931,59	0,194
931,83	0,194
932,08	0,194
932,33	0,194
932,57	0,194
932,82	0,194
933,06	0,194
933,31	0,194
933,56	0,194
933,80	0,194
934,05	0,194
934,29	0,194
934,54	0,195
934,78	0,195
935,03	0,195
935,28	0,195
935,52	0,194
935,77	0,195
936,01	0,195
936,26	0,195
936,51	0,195
936,75	0,195
937,00	0,196
937,24	0,196
937,49	0,195
937,73	0,196
937,98	0,195
938,22	0,196
938,47	0,196
938,72	0,196
938,96	0,196
939,21	0,196
939,45	0,196
939,70	0,196
939,94	0,196
940,19	0,196
940,44	0,196
940,68	0,196
940,93	0,197
941,17	0,196
941,42	0,196
941,66	0,196
941,91	0,196
942,15	0,196
942,40	0,196
942,65	0,196
942,89	0,196
943,14	0,196
943,38	0,196
943,63	0,196
943,87	0,197
944,12	0,196
944,36	0,196
944,61	0,197
944,85	0,196
945,10	0,196
945,35	0,196
945,59	0,196
945,84	0,195
946,08	0,195
946,33	0,195
946,57	0,195
946,82	0,195
947,06	0,195
947,31	0,195
947,55	0,195
947,80	0,194
948,04	0,195
948,29	0,194
948,54	0,194
948,78	0,194
949,03	0,194
949,27	0,194
949,52	0,194
949,76	0,195
950,01	0,194
950,25	0,194
950,50	0,194
950,74	0,194
950,99	0,194
951,23	0,194
951,48	0,194
951,72	0,195
951,97	0,195
952,21	0,195
952,46	0,196
952,70	0,196
952,95	0,196
953,19	0,198
953,44	0,197
953,68	0,198
953,93	0,198
954,17	0,199
954,42	0,200
954,66	0,200
954,91	0,201
955,15	0,201
955,40	0,203
955,64	0,203
955,89	0,205
956,13	0,205
956,38	0,206
956,62	0,208
956,87	0,209
957,11	0,210
957,36	0,211
957,60	0,213
957,85	0,214
958,09	0,216
958,34	0,217
958,58	0,218
958,83	0,220
959,07	0,222
959,32	0,224
959,56	0,226
959,81	0,228
960,05	0,231
960,30	0,232
960,54	0,235
960,79	0,237
961,03	0,240
961,28	0,243
961,52	0,245
961,77	0,249
962,01	0,253
962,26	0,256
962,50	0,259
962,75	0,262
962,99	0,267
963,24	0,272
963,48	0,276
963,73	0,281
963,97	0,286
964,21	0,292
964,46	0,298
964,70	0,304
964,95	0,311
965,19	0,318
965,44	0,327
965,68	0,335
965,93	0,346
966,17	0,355
966,42	0,368
966,66	0,379
966,91	0,394
967,15	0,407
967,40	0,424
967,64	0,440
967,88	0,459
968,13	0,479
968,37	0,501
968,62	0,521
968,86	0,545
969,11	0,569
969,35	0,597
969,60	0,624
969,84	0,653
970,09	0,683
970,33	0,709
970,57	0,740
970,82	0,776
971,06	0,810
971,31	0,850
971,55	0,875
971,80	0,895
972,04	0,930
972,29	0,957
972,53	0,984
972,77	1,001
973,02	1,013
973,26	1,042
973,51	1,052
973,75	1,064
974,00	1,052
974,24	1,069
974,48	1,048
974,73	1,035
974,97	1,042
975,22	1,032
975,46	1,009
975,71	1,009
975,95	0,989
976,19	0,963
976,44	0,950
976,68	0,937
976,93	0,907
977,17	0,889
977,42	0,876
977,66	0,858
977,90	0,833
978,15	0,815
978,39	0,804
978,64	0,783
978,88	0,763
979,12	0,752
979,37	0,736
979,61	0,722
979,86	0,702
980,10	0,687
980,35	0,678
980,59	0,655
980,83	0,642
981,08	0,631
981,32	0,610
981,57	0,598
981,81	0,589
982,05	0,574
982,30	0,561
982,54	0,548
982,79	0,540
983,03	0,532
983,27	0,518
983,52	0,510
983,76	0,494
984,01	0,492
984,25	0,483
984,49	0,476
984,74	0,467
984,98	0,464
985,23	0,453
985,47	0,450
985,71	0,443
985,96	0,441
986,20	0,433
986,45	0,429
986,69	0,426
986,93	0,422
987,18	0,416
987,42	0,414
987,66	0,412
987,91	0,412
988,15	0,407
988,40	0,406
988,64	0,402
988,88	0,399
989,13	0,394
989,37	0,390
989,61	0,392
989,86	0,389
990,10	0,387
990,35	0,383
990,59	0,378
990,83	0,377
991,08	0,376
991,32	0,374
991,56	0,372
991,81	0,365
992,05	0,363
992,30	0,358
992,54	0,356
992,78	0,355
993,03	0,352
993,27	0,349
993,51	0,347
993,76	0,342
994,00	0,340
994,24	0,335
994,49	0,330
994,73	0,328
994,98	0,325
995,22	0,323
995,46	0,322
995,71	0,317
995,95	0,314
996,19	0,312
996,44	0,313
996,68	0,306
996,92	0,306
997,17	0,306
997,41	0,304
997,65	0,301
997,90	0,301
998,14	0,297
998,38	0,298
998,63	0,294
998,87	0,295
999,11	0,295
999,36	0,291
999,60	0,290
999,84	0,289
1000,09	0,289
1000,33	0,286
1000,57	0,286
1000,82	0,285
1001,06	0,285
1001,30	0,284
1001,55	0,278
1001,79	0,279
1002,03	0,277
1002,28	0,276
1002,52	0,275
1002,76	0,269
1003,01	0,270
1003,25	0,268
1003,49	0,267
1003,74	0,265
1003,98	0,262
1004,22	0,259
1004,47	0,258
1004,71	0,257
1004,95	0,255
1005,20	0,253
1005,44	0,249
1005,68	0,247
1005,93	0,247
1006,17	0,242
1006,41	0,241
1006,66	0,240
1006,90	0,237
1007,14	0,235
1007,38	0,233
1007,63	0,231
1007,87	0,228
1008,11	0,228
1008,36	0,226
1008,60	0,224
1008,84	0,223
1009,09	0,220
1009,33	0,218
1009,57	0,218
1009,81	0,216
1010,06	0,214
1010,30	0,213
1010,54	0,212
1010,79	0,212
1011,03	0,210
1011,27	0,209
1011,52	0,208
1011,76	0,207
1012,00	0,207
1012,24	0,205
1012,49	0,206
1012,73	0,204
1012,97	0,204
1013,22	0,204
1013,46	0,202
1013,70	0,202
1013,94	0,203
1014,19	0,202
1014,43	0,202
1014,67	0,201
1014,92	0,200
1015,16	0,199
1015,40	0,200
1015,64	0,199
1015,89	0,198
1016,13	0,198
1016,37	0,197
1016,62	0,199
1016,86	0,196
1017,10	0,197
1017,34	0,196
1017,59	0,195
1017,83	0,197
1018,07	0,196
1018,31	0,196
1018,56	0,196
1018,80	0,196
1019,04	0,195
1019,28	0,195
1019,53	0,193
1019,77	0,194
1020,01	0,195
1020,26	0,193
1020,50	0,193
1020,74	0,193
1020,98	0,193
1021,23	0,192
1021,47	0,191
1021,71	0,191
1021,95	0,192
1022,20	0,192
1022,44	0,192
1022,68	0,191
1022,92	0,190
1023,17	0,191
1023,41	0,191
1023,65	0,190
1023,89	0,190
1024,14	0,190
1024,38	0,190
1024,62	0,190
1024,86	0,190
1025,11	0,191
1025,35	0,191
1025,59	0,190
1025,83	0,190
1026,07	0,189
1026,32	0,190
1026,56	0,191
1026,80	0,188
1027,04	0,191
1027,29	0,190
1027,53	0,188
1027,77	0,190
1028,01	0,189
1028,26	0,189
1028,50	0,190
1028,74	0,188
1028,98	0,190
1029,22	0,187
1029,47	0,190
1029,71	0,191
1029,95	0,190
1030,19	0,189
1030,44	0,189
1030,68	0,189
1030,92	0,189
1031,16	0,189
1031,40	0,188
1031,65	0,188
1031,89	0,189
1032,13	0,190
1032,37	0,191
1032,62	0,190
1032,86	0,187
1033,10	0,188
1033,34	0,189
1033,58	0,188
1033,83	0,187
1034,07	0,188
1034,31	0,188
1034,55	0,189
1034,79	0,187
1035,04	0,186
1035,28	0,188
1035,52	0,188
1035,76	0,187
1036,00	0,188
1036,25	0,187
1036,49	0,187
1036,73	0,187
1036,97	0,187
1037,21	0,185
1037,46	0,188
1037,70	0,187
1037,94	0,184
1038,18	0,186
1038,42	0,187
1038,67	0,189
1038,91	0,186
1039,15	0,183
1039,39	0,186
1039,63	0,186
1039,88	0,188
1040,12	0,186
1040,36	0,186
1040,60	0,187
1040,84	0,185
1041,08	0,185
1041,33	0,185
1041,57	0,188
1041,81	0,186
1042,05	0,187
1042,29	0,190
1042,53	0,192
1042,78	0,185
1043,02	0,185
1043,26	0,185
1043,50	0,187
1043,74	0,184
1043,99	0,183
1044,23	0,188
1044,47	0,185
1044,71	0,180
1044,95	0,184
1045,19	0,187
1045,44	0,189
1045,68	0,188
1045,92	0,186
1046,16	0,187
1046,40	0,188
1046,64	0,184
1046,88	0,185
1047,13	0,188
1047,37	0,185
1047,61	0,184
1047,85	0,189
1048,09	0,185
1048,33	0,182
1048,58	0,182
1048,82	0,185
1049,06	0,185
1049,30	0,183
1049,54	0,183
1049,78	0,187
1050,02	0,187
1050,27	0,185
1050,51	0,185
1050,75	0,186
1050,99	0,185
1051,23	0,183
1051,47	0,184
1051,71	0,185
1051,96	0,185
1052,20	0,185
1052,44	0,185
1052,68	0,184
1052,92	0,183
1053,16	0,188
1053,40	0,184
1053,65	0,185
1053,89	0,183
1054,13	0,182
1054,37	0,188
1054,61	0,185
1054,85	0,183
1055,09	0,184
1055,33	0,184
1055,58	0,182
1055,82	0,186
1056,06	0,182
1056,30	0,187
1056,54	0,187
1056,78	0,188
1057,02	0,185
1057,26	0,182
1057,51	0,183
1057,75	0,185
1057,99	0,186
1058,23	0,186
1058,47	0,185
1058,71	0,187
1058,95	0,181
1059,19	0,186
1059,43	0,184
1059,68	0,181
1059,92	0,186
1060,16	0,186
1060,40	0,184
1060,64	0,185
1060,88	0,182
1061,12	0,190
1061,36	0,190
1061,60	0,187
1061,84	0,187
1062,09	0,184
1062,33	0,184
1062,57	0,191
1062,81	0,181
1063,05	0,180
1063,29	0,184
1063,53	0,186
1063,77	0,178
1064,01	0,181
1064,25	0,183
1064,50	0,176
1064,74	0,181
1064,98	0,185
1065,22	0,188
1065,46	0,180
1065,70	0,181
1065,94	0,179
1066,18	0,184
1066,42	0,185
1066,66	0,182
1066,90	0,183
1067,14	0,178
1067,39	0,180
1067,63	0,178
1067,87	0,176
1068,11	0,184
1068,35	0,177
1068,59	0,179
1068,83	0,177
1069,07	0,178
1069,31	0,187
1069,55	0,179
1069,79	0,182
1070,03	0,179
1070,27	0,174
1070,52	0,185
1070,76	0,177
1071,00	0,181
1071,24	0,180
1071,48	0,183
1071,72	0,178
1071,96	0,181
1072,20	0,181
1072,44	0,185
1072,68	0,175
1072,92	0,180
1073,16	0,192
1073,40	0,177
1073,64	0,186
1073,88	0,182
1074,12	0,182
1074,36	0,173
1074,61	0,181
1074,85	0,176
1075,09	0,184
1075,33	0,185
1075,57	0,180
1075,81	0,191
1076,05	0,186
1076,29	0,184
1076,53	0,173
1076,77	0,179
1077,01	0,179
1077,25	0,181
1077,49	0,176
1077,73	0,177
1077,97	0,194
1078,21	0,186
1078,45	0,181
1078,69	0,182
1078,93	0,183
1079,17	0,183
1079,41	0,182
1079,65	0,183
1079,89	0,175
1080,13	0,183
1080,37	0,183
1080,61	0,178
1080,86	0,174
1081,10	0,194
1081,34	0,188
1081,58	0,198
1081,82	0,179
1082,06	0,185
1082,30	0,186
1082,54	0,180
1082,78	0,190
1083,02	0,192
1083,26	0,187
1083,50	0,188
1083,74	0,181
1083,98	0,182
1084,22	0,177
1084,46	0,172
1084,70	0,181
1084,94	0,170
1085,18	0,181
1085,42	0,187
1085,66	0,176
1085,90	0,175
1086,14	0,190
1086,38	0,180
1086,62	0,177
1086,86	0,175
1087,10	0,182
1087,34	0,189
1087,58	0,176
1087,82	0,179
1088,06	0,177
1088,30	0,174
1088,54	0,179
1088,78	0,192
1089,02	0,181
1089,26	0,185
1089,50	0,170
1089,74	0,172
1089,98	0,193
1090,22	0,202
1090,46	0,169
1090,70	0,184
1090,94	0,184
1091,18	0,182
1091,42	0,174
1091,66	0,172
1091,90	0,174
1092,14	0,187
1092,38	0,188
1092,62	0,187
1092,86	0,177
1093,10	0,186
1093,34	0,186
1093,58	0,171
1093,82	0,171
1094,06	0,174
1094,30	0,169
1094,54	0,174
1094,78	0,157
1095,01	0,165
1095,25	0,188
1095,49	0,187
1095,73	0,173
1095,97	0,166
1096,21	0,170
1096,45	0,166
1096,69	0,171
1096,93	0,207
1097,17	0,196
1097,41	0,168
1097,65	0,179
1097,89	0,175
1098,13	0,211
1098,37	0,182
1098,61	0,188
1098,85	0,181
1099,09	0,174
1099,33	0,186
1099,57	0,174
1099,81	0,192
1100,05	0,167
1100,29	0,186
1100,53	0,209
1100,77	0,194
1101,00	0,198
1101,24	0,176
1101,48	0,174
1101,72	0,213
1101,96	0,183
1102,20	0,179
1102,44	0,211
1102,68	0,175
1102,92	0,186
1103,16	0,188
1103,40	0,173
1103,64	0,185
1103,88	0,199
1104,12	0,196
1104,36	0,192
1104,60	0,167
1104,84	0,166
1105,07	0,193
1105,31	0,180
1105,55	0,199
1105,79	0,179
1106,03	0,176
1106,27	0,209
1106,51	0,171
1106,75	0,220
1106,99	0,196
1107,23	0,182
1107,47	0,200
1107,71	0,191
1107,95	0,188
1108,18	0,205
1108,42	0,190
1108,66	0,180
1108,90	0,214
1109,14	0,187
1109,38	0,200
1109,62	0,247
1109,86	0,238
1110,10	0,176
1110,34	0,173
1110,58	0,177
1110,82	0,204
1111,05	0,197
1111,29	0,197
1111,53	0,213
1111,77	0,159
1112,01	0,143
1112,25	0,220
1112,49	0,167
1112,73	0,162
1112,97	0,227
1113,21	0,187
1113,45	0,132
1113,68	0,159
1113,92	0,170
1114,16	0,182
1114,40	0,131
1114,64	0,172
1114,88	0,148
1115,12	0,150
1115,36	0,179
1115,60	0,185
1115,83	0,228
1116,07	0,299
1116,31	0,236
1116,55	0,193
1116,79	0,182
1117,03	0,287
1117,27	0,197
1117,51	0,524
1117,75	0,406
1117,98	0,392
1118,22	0,235
1118,46	0,161
1118,70	0,191
1118,94	0,207
1119,18	0,203
1119,42	0,529
1119,66	0,132
1119,89	0,189
1120,13	0,220
1120,37	0,192
1120,61	0,144
1120,85	0,158
1121,09	0,141
1121,33	0,164
1121,57	0,145
1121,80	0,153
1122,04	0,152
1122,28	0,570
1122,52	0,170
1122,76	0,230
1123,00	0,190
1123,24	0,201
1123,47	0,337
1123,71	0,373
>>>>>End Processed Spectral Data<<<<<
