SpectraSuite Data File
++++++++++++++++++++++++++++++++++++
Date: Sun Jan 01 00:49:38 GMT-03:00 2006
User: Lavfis
Dark Spectrum Present: Yes
Reference Spectrum Present: Yes
Number of Sampled Component Spectra: 1
Spectrometers: HR4C5405
Integration Time (usec): 5000 (HR4C5405)
Spectra Averaged: 5 (HR4C5405)
Boxcar Smoothing: 3 (HR4C5405)
Correct for Electrical Dark: Yes (HR4C5405)
Strobe/Lamp Enabled: No (HR4C5405)
Correct for Detector Non-linearity: No (HR4C5405)
Correct for Stray Light: No (HR4C5405)
Number of Pixels in Processed Spectrum: 3648
>>>>>Begin Processed Spectral Data<<<<<
194,53	0,000
194,80	314,714
195,07	314,714
195,34	1165,180
195,61	-2799,286
195,88	78,920
196,15	108,064
196,42	84,807
196,69	127,891
196,96	190,449
197,23	115,302
197,50	384,877
197,77	-206,129
198,04	-1248,190
198,31	-189,893
198,58	188,050
198,85	173,767
199,12	88,941
199,39	72,515
199,66	30,958
199,93	20,933
200,20	32,140
200,47	50,113
200,74	76,707
201,01	106,759
201,28	99,743
201,55	167,559
201,82	131,911
202,09	100,546
202,36	101,998
202,63	81,520
202,90	81,774
203,17	101,846
203,44	75,620
203,71	63,492
203,98	73,927
204,25	100,764
204,52	91,682
204,79	87,670
205,06	77,797
205,33	101,974
205,60	120,080
205,86	140,523
206,13	69,326
206,40	72,483
206,67	107,308
206,94	145,785
207,21	95,205
207,48	92,242
207,75	86,369
208,02	356,737
208,29	309,066
208,56	175,933
208,83	208,558
209,10	182,613
209,37	209,006
209,64	386,958
209,91	114,144
210,18	11,816
210,45	43,616
210,72	50,427
210,99	32,923
211,26	1,273
211,53	30,426
211,80	27,508
212,07	47,475
212,33	54,051
212,60	41,483
212,87	32,291
213,14	63,214
213,41	35,774
213,68	67,327
213,95	78,504
214,22	63,610
214,49	68,055
214,76	78,423
215,03	61,679
215,30	108,445
215,57	53,866
215,84	3,849
216,11	-20,410
216,38	-181,589
216,65	86,435
216,91	164,396
217,18	87,452
217,45	188,174
217,72	472,394
217,99	168,307
218,26	121,771
218,53	69,247
218,80	73,575
219,07	63,800
219,34	69,841
219,61	48,116
219,88	54,068
220,15	62,453
220,42	50,729
220,68	40,636
220,95	64,226
221,22	58,574
221,49	56,047
221,76	46,752
222,03	51,474
222,30	80,845
222,57	75,359
222,84	71,605
223,11	81,867
223,38	80,181
223,65	83,767
223,92	77,244
224,18	64,315
224,45	63,487
224,72	76,682
224,99	91,024
225,26	85,005
225,53	89,606
225,80	88,910
226,07	110,767
226,34	166,910
226,61	159,439
226,88	135,678
227,14	169,835
227,41	153,320
227,68	122,779
227,95	96,660
228,22	73,892
228,49	59,917
228,76	57,178
229,03	61,088
229,30	69,112
229,57	73,894
229,83	70,247
230,10	59,115
230,37	58,342
230,64	73,807
230,91	34,762
231,18	-67,900
231,45	-201,716
231,72	-144,223
231,99	-290,307
232,25	-11,572
232,52	-35,115
232,79	37,265
233,06	44,826
233,33	139,426
233,60	226,313
233,87	137,747
234,14	116,878
234,41	57,411
234,67	28,396
234,94	70,575
235,21	62,971
235,48	47,739
235,75	63,951
236,02	61,823
236,29	76,338
236,56	70,158
236,82	14,947
237,09	10,661
237,36	40,420
237,63	30,167
237,90	25,403
238,17	39,439
238,44	56,056
238,71	72,518
238,97	82,578
239,24	91,373
239,51	82,879
239,78	76,114
240,05	72,333
240,32	67,757
240,59	68,244
240,86	46,701
241,12	40,153
241,39	52,035
241,66	56,706
241,93	40,479
242,20	45,134
242,47	8,394
242,74	14,496
243,00	11,387
243,27	13,218
243,54	11,557
243,81	80,729
244,08	60,381
244,35	85,327
244,62	83,075
244,88	67,108
245,15	67,294
245,42	67,098
245,69	56,262
245,96	67,240
246,23	81,648
246,50	85,532
246,76	136,772
247,03	139,174
247,30	141,089
247,57	146,221
247,84	150,856
248,11	124,060
248,37	143,146
248,64	149,866
248,91	159,277
249,18	1478,776
249,45	-371,735
249,72	75,299
249,99	98,699
250,25	83,734
250,52	64,836
250,79	59,451
251,06	50,922
251,33	46,154
251,60	41,324
251,86	30,037
252,13	20,188
252,40	23,104
252,67	-20,493
252,94	13,326
253,21	26,467
253,47	35,868
253,74	28,506
254,01	21,676
254,28	19,481
254,55	38,583
254,81	14,640
255,08	34,029
255,35	31,601
255,62	59,771
255,89	78,350
256,16	75,860
256,42	76,383
256,69	62,540
256,96	36,855
257,23	36,187
257,50	21,388
257,76	26,303
258,03	43,552
258,30	48,660
258,57	66,234
258,84	82,137
259,11	93,978
259,37	115,165
259,64	103,487
259,91	83,387
260,18	75,036
260,45	70,824
260,71	63,301
260,98	55,707
261,25	32,339
261,52	4,021
261,79	14,886
262,05	26,351
262,32	22,803
262,59	30,367
262,86	27,392
263,13	40,680
263,39	36,013
263,66	40,861
263,93	37,581
264,20	47,646
264,47	45,172
264,73	32,414
265,00	30,924
265,27	51,972
265,54	55,063
265,81	51,837
266,07	50,246
266,34	51,257
266,61	48,501
266,88	28,329
267,15	29,375
267,41	24,631
267,68	21,222
267,95	11,085
268,22	16,184
268,48	24,822
268,75	33,833
269,02	28,476
269,29	24,734
269,56	26,637
269,82	32,847
270,09	47,188
270,36	49,213
270,63	44,022
270,89	58,412
271,16	65,736
271,43	64,690
271,70	71,865
271,97	66,359
272,23	77,692
272,50	85,898
272,77	73,745
273,04	71,926
273,30	78,479
273,57	71,975
273,84	69,202
274,11	51,406
274,37	46,572
274,64	47,359
274,91	52,640
275,18	51,255
275,45	47,755
275,71	50,530
275,98	52,842
276,25	37,887
276,52	37,775
276,78	34,302
277,05	25,991
277,32	11,016
277,59	22,604
277,85	35,991
278,12	36,431
278,39	19,556
278,66	10,158
278,92	14,257
279,19	23,581
279,46	13,268
279,73	10,387
279,99	16,416
280,26	34,301
280,53	42,942
280,80	42,383
281,06	37,859
281,33	39,243
281,60	33,550
281,87	32,221
282,13	34,024
282,40	37,888
282,67	39,521
282,94	51,410
283,20	56,637
283,47	68,388
283,74	67,944
284,01	59,692
284,27	55,175
284,54	49,847
284,81	44,315
285,07	45,052
285,34	40,455
285,61	43,679
285,88	47,120
286,14	47,391
286,41	50,456
286,68	53,184
286,95	46,307
287,21	43,541
287,48	42,114
287,75	41,231
288,02	34,770
288,28	28,969
288,55	24,444
288,82	26,546
289,08	28,584
289,35	27,313
289,62	25,320
289,89	25,295
290,15	20,794
290,42	21,596
290,69	19,638
290,95	12,244
291,22	12,004
291,49	11,135
291,76	15,202
292,02	16,076
292,29	15,404
292,56	18,139
292,82	17,609
293,09	17,268
293,36	15,787
293,63	12,801
293,89	15,525
294,16	14,019
294,43	7,400
294,69	8,874
294,96	5,561
295,23	5,188
295,50	3,762
295,76	3,265
296,03	4,296
296,30	4,273
296,56	4,446
296,83	5,680
297,10	5,373
297,36	5,342
297,63	4,344
297,90	2,279
298,16	2,432
298,43	2,029
298,70	1,250
298,97	1,291
299,23	2,172
299,50	3,330
299,77	4,131
300,03	3,927
300,30	2,840
300,57	2,686
300,83	2,343
301,10	1,447
301,37	-0,187
301,63	-0,161
301,90	0,627
302,17	1,330
302,44	1,542
302,70	1,712
302,97	1,399
303,24	1,639
303,50	1,297
303,77	0,642
304,04	0,425
304,30	0,718
304,57	1,260
304,84	1,872
305,10	2,022
305,37	1,855
305,64	1,895
305,90	1,948
306,17	1,446
306,44	0,945
306,70	0,841
306,97	0,637
307,24	0,687
307,50	0,681
307,77	0,262
308,04	0,396
308,30	0,475
308,57	0,158
308,84	0,307
309,10	0,515
309,37	0,807
309,64	1,100
309,90	1,189
310,17	1,076
310,44	1,295
310,70	1,294
310,97	1,064
311,24	0,771
311,50	0,610
311,77	0,417
312,04	0,460
312,30	0,341
312,57	0,420
312,84	0,570
313,10	0,679
313,37	0,741
313,63	0,878
313,90	0,665
314,17	0,763
314,43	0,482
314,70	0,414
314,97	0,476
315,23	0,420
315,50	0,448
315,77	0,654
316,03	0,570
316,30	0,821
316,57	0,776
316,83	0,661
317,10	0,629
317,36	0,511
317,63	0,519
317,90	0,624
318,16	0,481
318,43	0,535
318,70	0,511
318,96	0,636
319,23	0,822
319,50	0,842
319,76	0,883
320,03	0,955
320,29	0,851
320,56	0,917
320,83	0,827
321,09	0,722
321,36	0,670
321,63	0,538
321,89	0,523
322,16	0,611
322,42	0,594
322,69	0,585
322,96	0,590
323,22	0,469
323,49	0,501
323,76	0,444
324,02	0,508
324,29	0,502
324,55	0,609
324,82	0,550
325,09	0,711
325,35	0,734
325,62	0,821
325,88	0,776
326,15	0,692
326,42	0,620
326,68	0,740
326,95	0,683
327,21	0,652
327,48	0,626
327,75	0,639
328,01	0,720
328,28	0,837
328,55	0,646
328,81	0,558
329,08	0,568
329,34	0,556
329,61	0,579
329,88	0,505
330,14	0,369
330,41	0,401
330,67	0,542
330,94	0,541
331,21	0,511
331,47	0,423
331,74	0,515
332,00	0,518
332,27	0,471
332,53	0,457
332,80	0,450
333,07	0,464
333,33	0,462
333,60	0,513
333,86	0,564
334,13	0,752
334,40	0,692
334,66	0,685
334,93	0,697
335,19	0,700
335,46	0,574
335,73	0,574
335,99	0,463
336,26	0,445
336,52	0,373
336,79	0,364
337,05	0,422
337,32	0,425
337,59	0,343
337,85	0,362
338,12	0,414
338,38	0,464
338,65	0,580
338,91	0,581
339,18	0,640
339,45	0,701
339,71	0,689
339,98	0,617
340,24	0,581
340,51	0,485
340,77	0,474
341,04	0,445
341,31	0,419
341,57	0,426
341,84	0,474
342,10	0,485
342,37	0,479
342,63	0,572
342,90	0,629
343,17	0,694
343,43	0,788
343,70	0,831
343,96	0,869
344,23	0,901
344,49	0,856
344,76	0,864
345,02	0,819
345,29	0,797
345,56	0,872
345,82	0,865
346,09	0,939
346,35	0,923
346,62	0,834
346,88	0,856
347,15	0,842
347,41	0,773
347,68	0,909
347,94	0,860
348,21	0,900
348,48	1,024
348,74	1,025
349,01	1,042
349,27	1,112
349,54	1,104
349,80	1,163
350,07	1,205
350,33	1,247
350,60	1,321
350,86	1,324
351,13	1,317
351,39	1,284
351,66	1,291
351,93	1,225
352,19	1,152
352,46	1,133
352,72	1,218
352,99	1,232
353,25	1,324
353,52	1,386
353,78	1,468
354,05	1,574
354,31	1,689
354,58	1,627
354,84	1,628
355,11	1,646
355,37	1,606
355,64	1,600
355,90	1,605
356,17	1,665
356,43	1,801
356,70	1,921
356,97	1,908
357,23	2,006
357,50	2,101
357,76	2,190
358,03	2,196
358,29	2,271
358,56	2,396
358,82	2,493
359,09	2,580
359,35	2,651
359,62	2,754
359,88	2,885
360,15	2,937
360,41	2,908
360,68	3,062
360,94	3,084
361,21	3,089
361,47	3,061
361,74	3,009
362,00	2,969
362,27	2,967
362,53	2,876
362,80	2,927
363,06	2,996
363,33	3,055
363,59	3,061
363,86	3,152
364,12	3,269
364,39	3,394
364,65	3,466
364,92	3,526
365,18	3,593
365,45	3,788
365,71	3,914
365,98	3,914
366,24	3,957
366,51	4,055
366,77	4,212
367,04	4,329
367,30	4,354
367,57	4,397
367,83	4,585
368,10	4,686
368,36	4,683
368,63	4,745
368,89	4,796
369,15	4,893
369,42	4,951
369,68	4,966
369,95	5,045
370,21	5,138
370,48	5,117
370,74	5,201
371,01	5,208
371,27	5,286
371,54	5,291
371,80	5,319
372,07	5,363
372,33	5,452
372,60	5,534
372,86	5,669
373,13	5,742
373,39	5,817
373,66	5,878
373,92	5,953
374,18	6,031
374,45	6,083
374,71	6,167
374,98	6,259
375,24	6,346
375,51	6,411
375,77	6,489
376,04	6,608
376,30	6,687
376,57	6,721
376,83	6,751
377,10	6,807
377,36	6,889
377,62	6,999
377,89	7,062
378,15	7,096
378,42	7,132
378,68	7,216
378,95	7,378
379,21	7,533
379,48	7,610
379,74	7,652
380,00	7,761
380,27	7,910
380,53	7,989
380,80	8,011
381,06	8,007
381,33	8,066
381,59	8,132
381,86	8,103
382,12	8,085
382,38	8,126
382,65	8,186
382,91	8,268
383,18	8,352
383,44	8,440
383,71	8,468
383,97	8,534
384,24	8,591
384,50	8,603
384,76	8,624
385,03	8,685
385,29	8,697
385,56	8,779
385,82	8,835
386,09	8,862
386,35	8,857
386,61	8,855
386,88	8,847
387,14	8,823
387,41	8,901
387,67	8,947
387,94	9,013
388,20	9,103
388,46	9,149
388,73	9,191
388,99	9,267
389,26	9,298
389,52	9,233
389,78	9,204
390,05	9,176
390,31	9,231
390,58	9,228
390,84	9,201
391,11	9,147
391,37	9,133
391,63	9,154
391,90	9,150
392,16	9,098
392,43	9,091
392,69	9,142
392,95	9,188
393,22	9,256
393,48	9,269
393,75	9,342
394,01	9,394
394,27	9,428
394,54	9,445
394,80	9,311
395,07	9,215
395,33	9,183
395,59	9,199
395,86	9,176
396,12	9,103
396,39	9,041
396,65	9,127
396,91	9,184
397,18	9,242
397,44	9,202
397,71	9,153
397,97	9,149
398,23	9,160
398,50	9,142
398,76	9,150
399,03	9,041
399,29	9,042
399,55	9,032
399,82	9,012
400,08	8,892
400,34	8,851
400,61	8,811
400,87	8,734
401,14	8,678
401,40	8,625
401,66	8,594
401,93	8,598
402,19	8,605
402,46	8,548
402,72	8,524
402,98	8,424
403,25	8,371
403,51	8,266
403,77	8,195
404,04	8,036
404,30	7,912
404,57	7,825
404,83	7,807
405,09	7,755
405,36	7,691
405,62	7,629
405,88	7,627
406,15	7,628
406,41	7,620
406,67	7,530
406,94	7,451
407,20	7,411
407,47	7,338
407,73	7,254
407,99	7,232
408,26	7,175
408,52	7,117
408,78	7,094
409,05	7,023
409,31	7,001
409,57	6,947
409,84	6,883
410,10	6,907
410,37	6,869
410,63	6,784
410,89	6,746
411,16	6,700
411,42	6,706
411,68	6,650
411,95	6,587
412,21	6,589
412,47	6,622
412,74	6,648
413,00	6,712
413,26	6,727
413,53	6,771
413,79	6,782
414,05	6,835
414,32	6,872
414,58	6,905
414,84	6,864
415,11	6,859
415,37	6,875
415,63	6,861
415,90	6,791
416,16	6,769
416,42	6,814
416,69	6,929
416,95	6,967
417,21	7,033
417,48	7,149
417,74	7,216
418,00	7,228
418,27	7,246
418,53	7,188
418,79	7,248
419,06	7,205
419,32	7,148
419,58	7,166
419,85	7,194
420,11	7,189
420,37	7,229
420,64	7,216
420,90	7,246
421,16	7,312
421,43	7,302
421,69	7,308
421,95	7,321
422,22	7,310
422,48	7,304
422,74	7,308
423,01	7,296
423,27	7,317
423,53	7,361
423,79	7,414
424,06	7,432
424,32	7,458
424,58	7,503
424,85	7,486
425,11	7,513
425,37	7,451
425,64	7,395
425,90	7,359
426,16	7,320
426,43	7,273
426,69	7,243
426,95	7,221
427,21	7,262
427,48	7,249
427,74	7,300
428,00	7,324
428,27	7,281
428,53	7,221
428,79	7,168
429,06	7,120
429,32	7,040
429,58	6,919
429,84	6,887
430,11	6,847
430,37	6,844
430,63	6,874
430,90	6,845
431,16	6,857
431,42	6,941
431,68	6,972
431,95	6,987
432,21	6,989
432,47	6,977
432,74	6,983
433,00	7,077
433,26	7,038
433,52	6,982
433,79	7,028
434,05	7,100
434,31	7,089
434,58	7,156
434,84	7,151
435,10	7,192
435,36	7,227
435,63	7,235
435,89	7,241
436,15	7,380
436,41	7,433
436,68	7,476
436,94	7,595
437,20	7,775
437,47	7,882
437,73	8,010
437,99	8,062
438,25	8,153
438,52	8,261
438,78	8,332
439,04	8,431
439,30	8,583
439,57	8,791
439,83	8,915
440,09	9,101
440,35	9,326
440,62	9,516
440,88	9,583
441,14	9,739
441,41	9,803
441,67	9,977
441,93	10,099
442,19	10,198
442,46	10,391
442,72	10,588
442,98	10,696
443,24	10,837
443,51	11,046
443,77	11,240
444,03	11,483
444,29	11,740
444,56	11,921
444,82	12,123
445,08	12,260
445,34	12,376
445,61	12,576
445,87	12,712
446,13	12,765
446,39	12,906
446,65	13,067
446,92	13,318
447,18	13,470
447,44	13,605
447,70	13,746
447,97	13,942
448,23	14,125
448,49	14,349
448,75	14,493
449,02	14,675
449,28	14,827
449,54	14,959
449,80	14,979
450,07	15,039
450,33	15,108
450,59	15,222
450,85	15,217
451,11	15,271
451,38	15,341
451,64	15,526
451,90	15,627
452,16	15,737
452,43	15,871
452,69	16,092
452,95	16,204
453,21	16,368
453,47	16,509
453,74	16,662
454,00	16,706
454,26	16,745
454,52	16,776
454,79	16,854
455,05	16,847
455,31	16,832
455,57	16,872
455,83	16,963
456,10	17,012
456,36	17,088
456,62	17,110
456,88	17,113
457,14	17,114
457,41	17,131
457,67	17,169
457,93	17,121
458,19	17,090
458,45	17,128
458,72	17,201
458,98	17,239
459,24	17,214
459,50	17,189
459,76	17,228
460,03	17,214
460,29	17,190
460,55	17,148
460,81	17,156
461,07	17,194
461,34	17,151
461,60	17,156
461,86	17,202
462,12	17,192
462,38	17,234
462,65	17,187
462,91	17,141
463,17	17,192
463,43	17,189
463,69	17,152
463,96	17,139
464,22	17,086
464,48	17,081
464,74	17,049
465,00	17,001
465,26	16,986
465,53	16,958
465,79	16,941
466,05	16,988
466,31	16,977
466,57	17,022
466,84	17,064
467,10	17,076
467,36	17,116
467,62	17,157
467,88	17,178
468,14	17,240
468,41	17,259
468,67	17,249
468,93	17,295
469,19	17,383
469,45	17,471
469,71	17,543
469,98	17,655
470,24	17,780
470,50	17,933
470,76	18,075
471,02	18,171
471,28	18,322
471,55	18,443
471,81	18,566
472,07	18,730
472,33	18,876
472,59	19,045
472,85	19,204
473,12	19,361
473,38	19,548
473,64	19,739
473,90	19,929
474,16	20,172
474,42	20,409
474,68	20,658
474,95	20,913
475,21	21,181
475,47	21,461
475,73	21,734
475,99	21,994
476,25	22,259
476,52	22,585
476,78	22,905
477,04	23,273
477,30	23,622
477,56	24,004
477,82	24,378
478,08	24,773
478,35	25,163
478,61	25,565
478,87	25,928
479,13	26,337
479,39	26,743
479,65	27,133
479,91	27,566
480,17	28,018
480,44	28,430
480,70	28,882
480,96	29,338
481,22	29,794
481,48	30,323
481,74	30,836
482,00	31,319
482,27	31,857
482,53	32,395
482,79	32,915
483,05	33,465
483,31	33,998
483,57	34,522
483,83	35,064
484,09	35,623
484,36	36,161
484,62	36,731
484,88	37,262
485,14	37,845
485,40	38,411
485,66	38,988
485,92	39,547
486,18	40,111
486,44	40,677
486,71	41,271
486,97	41,795
487,23	42,351
487,49	42,925
487,75	43,479
488,01	44,045
488,27	44,600
488,53	45,194
488,79	45,779
489,06	46,341
489,32	46,845
489,58	47,372
489,84	47,900
490,10	48,423
490,36	48,903
490,62	49,407
490,88	49,858
491,14	50,314
491,40	50,776
491,67	51,200
491,93	51,630
492,19	52,037
492,45	52,471
492,71	52,913
492,97	53,382
493,23	53,812
493,49	54,232
493,75	54,657
494,01	55,064
494,28	55,444
494,54	55,833
494,80	56,249
495,06	56,682
495,32	57,039
495,58	57,424
495,84	57,845
496,10	58,242
496,36	58,647
496,62	59,017
496,88	59,343
497,14	59,828
497,41	60,174
497,67	60,487
497,93	60,826
498,19	61,154
498,45	61,435
498,71	61,843
498,97	62,097
499,23	62,454
499,49	62,730
499,75	63,050
500,01	63,350
500,27	63,613
500,53	63,837
500,80	64,102
501,06	64,317
501,32	64,591
501,58	64,741
501,84	64,993
502,10	65,247
502,36	65,356
502,62	65,577
502,88	65,727
503,14	65,985
503,40	66,270
503,66	66,437
503,92	66,661
504,18	66,987
504,44	67,192
504,70	67,464
504,97	67,509
505,23	67,595
505,49	67,795
505,75	67,949
506,01	68,097
506,27	68,194
506,53	68,363
506,79	68,630
507,05	68,814
507,31	68,941
507,57	69,080
507,83	69,185
508,09	69,397
508,35	69,481
508,61	69,608
508,87	69,797
509,13	69,964
509,39	70,182
509,65	70,315
509,91	70,406
510,17	70,598
510,43	70,773
510,70	70,909
510,96	71,037
511,22	71,112
511,48	71,296
511,74	71,516
512,00	71,657
512,26	71,796
512,52	71,974
512,78	72,126
513,04	72,306
513,30	72,474
513,56	72,531
513,82	72,629
514,08	72,600
514,34	72,673
514,60	72,801
514,86	72,868
515,12	72,878
515,38	72,992
515,64	73,121
515,90	73,291
516,16	73,365
516,42	73,389
516,68	73,473
516,94	73,536
517,20	73,607
517,46	73,627
517,72	73,653
517,98	73,692
518,24	73,722
518,50	73,767
518,76	73,850
519,02	73,901
519,28	73,980
519,54	74,102
519,80	74,147
520,06	74,224
520,32	74,250
520,58	74,259
520,84	74,255
521,10	74,253
521,36	74,247
521,62	74,290
521,88	74,322
522,14	74,275
522,40	74,243
522,66	74,227
522,92	74,307
523,18	74,314
523,44	74,271
523,70	74,237
523,96	74,239
524,22	74,293
524,48	74,289
524,74	74,236
525,00	74,264
525,26	74,251
525,52	74,202
525,78	74,213
526,04	74,191
526,30	74,224
526,56	74,213
526,82	74,075
527,08	74,070
527,34	74,056
527,60	73,993
527,86	73,964
528,12	73,842
528,38	73,703
528,64	73,652
528,90	73,607
529,16	73,553
529,42	73,469
529,68	73,363
529,94	73,374
530,20	73,382
530,46	73,429
530,72	73,330
530,98	73,252
531,24	73,173
531,50	73,122
531,76	73,002
532,02	72,921
532,28	72,783
532,54	72,740
532,80	72,728
533,06	72,752
533,32	72,739
533,58	72,756
533,84	72,763
534,10	72,794
534,35	72,768
534,61	72,746
534,87	72,628
535,13	72,560
535,39	72,561
535,65	72,554
535,91	72,513
536,17	72,461
536,43	72,478
536,69	72,584
536,95	72,574
537,21	72,580
537,47	72,599
537,73	72,605
537,99	72,671
538,25	72,664
538,51	72,710
538,77	72,849
539,03	72,793
539,29	72,844
539,55	72,916
539,80	72,998
540,06	73,030
540,32	73,055
540,58	73,105
540,84	73,298
541,10	73,310
541,36	73,356
541,62	73,463
541,88	73,579
542,14	73,622
542,40	73,736
542,66	73,881
542,92	73,940
543,18	74,039
543,44	74,105
543,70	74,106
543,95	74,242
544,21	74,215
544,47	74,094
544,73	74,164
544,99	74,239
545,25	74,284
545,51	74,389
545,77	74,463
546,03	74,500
546,29	74,614
546,55	74,627
546,81	74,624
547,07	74,567
547,32	74,614
547,58	74,523
547,84	74,612
548,10	74,674
548,36	74,715
548,62	74,711
548,88	74,786
549,14	74,782
549,40	74,934
549,66	74,879
549,92	74,808
550,18	74,733
550,43	74,801
550,69	74,837
550,95	74,864
551,21	74,765
551,47	74,735
551,73	74,714
551,99	74,799
552,25	74,751
552,51	74,706
552,77	74,622
553,03	74,643
553,28	74,758
553,54	74,772
553,80	74,772
554,06	74,715
554,32	74,640
554,58	74,656
554,84	74,603
555,10	74,424
555,36	74,405
555,61	74,280
555,87	74,298
556,13	74,362
556,39	74,314
556,65	74,299
556,91	74,353
557,17	74,352
557,43	74,373
557,69	74,387
557,94	74,376
558,20	74,394
558,46	74,374
558,72	74,382
558,98	74,391
559,24	74,335
559,50	74,308
559,76	74,270
560,02	74,229
560,27	74,195
560,53	73,977
560,79	73,876
561,05	73,874
561,31	73,743
561,57	73,672
561,83	73,545
562,09	73,424
562,34	73,561
562,60	73,456
562,86	73,439
563,12	73,429
563,38	73,322
563,64	73,295
563,90	73,273
564,15	73,063
564,41	73,119
564,67	72,979
564,93	72,909
565,19	72,838
565,45	72,807
565,71	72,761
565,97	72,803
566,22	72,674
566,48	72,683
566,74	72,644
567,00	72,615
567,26	72,495
567,52	72,345
567,78	72,180
568,03	72,080
568,29	71,978
568,55	71,940
568,81	71,898
569,07	71,895
569,33	72,022
569,58	72,057
569,84	72,071
570,10	72,041
570,36	71,961
570,62	71,860
570,88	71,812
571,14	71,628
571,39	71,609
571,65	71,571
571,91	71,542
572,17	71,512
572,43	71,514
572,69	71,481
572,94	71,470
573,20	71,393
573,46	71,344
573,72	71,273
573,98	71,241
574,24	71,251
574,49	71,279
574,75	71,266
575,01	71,278
575,27	71,280
575,53	71,254
575,79	71,222
576,04	71,107
576,30	70,963
576,56	70,869
576,82	70,830
577,08	70,757
577,33	70,755
577,59	70,582
577,85	70,578
578,11	70,510
578,37	70,431
578,63	70,322
578,88	70,258
579,14	70,182
579,40	70,256
579,66	70,202
579,92	70,205
580,17	70,282
580,43	70,332
580,69	70,321
580,95	70,261
581,21	70,255
581,47	70,176
581,72	70,137
581,98	70,032
582,24	69,843
582,50	69,723
582,76	69,696
583,01	69,646
583,27	69,662
583,53	69,657
583,79	69,595
584,05	69,646
584,30	69,602
584,56	69,513
584,82	69,441
585,08	69,352
585,34	69,282
585,59	69,282
585,85	69,196
586,11	69,182
586,37	69,199
586,63	69,159
586,88	69,179
587,14	69,158
587,40	69,132
587,66	69,131
587,91	69,162
588,17	69,131
588,43	69,086
588,69	68,974
588,95	68,990
589,20	69,020
589,46	68,983
589,72	68,952
589,98	68,939
590,24	68,933
590,49	68,925
590,75	68,781
591,01	68,623
591,27	68,603
591,52	68,486
591,78	68,289
592,04	68,288
592,30	68,217
592,55	68,179
592,81	68,130
593,07	68,041
593,33	67,919
593,59	67,934
593,84	67,680
594,10	67,609
594,36	67,478
594,62	67,381
594,87	67,288
595,13	67,227
595,39	67,093
595,65	66,997
595,90	66,786
596,16	66,653
596,42	66,614
596,68	66,412
596,93	66,211
597,19	66,040
597,45	65,974
597,71	65,923
597,97	65,844
598,22	65,632
598,48	65,538
598,74	65,475
599,00	65,324
599,25	65,134
599,51	64,978
599,77	64,784
600,03	64,616
600,28	64,432
600,54	64,268
600,80	64,133
601,05	64,053
601,31	63,849
601,57	63,755
601,83	63,619
602,08	63,529
602,34	63,414
602,60	63,285
602,86	63,045
603,11	62,968
603,37	62,838
603,63	62,701
603,89	62,546
604,14	62,345
604,40	62,230
604,66	62,194
604,92	62,057
605,17	61,892
605,43	61,811
605,69	61,727
605,94	61,657
606,20	61,535
606,46	61,394
606,72	61,319
606,97	61,232
607,23	61,107
607,49	61,040
607,75	60,977
608,00	60,968
608,26	60,944
608,52	60,866
608,77	60,794
609,03	60,702
609,29	60,600
609,55	60,515
609,80	60,445
610,06	60,359
610,32	60,303
610,57	60,247
610,83	60,235
611,09	60,199
611,35	60,190
611,60	60,215
611,86	60,221
612,12	60,276
612,37	60,356
612,63	60,453
612,89	60,473
613,15	60,501
613,40	60,444
613,66	60,421
613,92	60,416
614,17	60,370
614,43	60,324
614,69	60,384
614,94	60,429
615,20	60,491
615,46	60,563
615,72	60,602
615,97	60,701
616,23	60,688
616,49	60,670
616,74	60,693
617,00	60,660
617,26	60,713
617,51	60,711
617,77	60,676
618,03	60,770
618,28	60,812
618,54	60,865
618,80	60,952
619,05	60,968
619,31	61,064
619,57	61,158
619,83	61,174
620,08	61,266
620,34	61,305
620,60	61,399
620,85	61,435
621,11	61,486
621,37	61,589
621,62	61,712
621,88	61,775
622,14	61,849
622,39	61,858
622,65	61,924
622,91	61,983
623,16	61,996
623,42	62,026
623,68	62,090
623,93	62,190
624,19	62,308
624,45	62,331
624,70	62,309
624,96	62,375
625,22	62,448
625,47	62,478
625,73	62,508
625,99	62,568
626,24	62,694
626,50	62,795
626,76	62,809
627,01	62,803
627,27	62,891
627,53	62,924
627,78	62,957
628,04	62,978
628,30	62,959
628,55	62,941
628,81	62,924
629,07	62,894
629,32	62,864
629,58	62,825
629,83	62,759
630,09	62,762
630,35	62,776
630,60	62,781
630,86	62,651
631,12	62,497
631,37	62,382
631,63	62,319
631,89	62,244
632,14	62,119
632,40	61,964
632,66	61,886
632,91	61,814
633,17	61,769
633,42	61,674
633,68	61,492
633,94	61,310
634,19	61,164
634,45	60,942
634,71	60,754
634,96	60,517
635,22	60,258
635,48	60,043
635,73	59,875
635,99	59,698
636,24	59,542
636,50	59,348
636,76	59,114
637,01	58,923
637,27	58,719
637,53	58,467
637,78	58,173
638,04	57,881
638,29	57,615
638,55	57,318
638,81	56,991
639,06	56,651
639,32	56,321
639,57	56,038
639,83	55,735
640,09	55,399
640,34	55,085
640,60	54,788
640,86	54,479
641,11	54,150
641,37	53,806
641,62	53,499
641,88	53,176
642,14	52,860
642,39	52,495
642,65	52,169
642,90	51,878
643,16	51,503
643,42	51,154
643,67	50,752
643,93	50,301
644,18	49,921
644,44	49,530
644,70	49,068
644,95	48,665
645,21	48,225
645,46	47,811
645,72	47,452
645,98	47,043
646,23	46,600
646,49	46,221
646,74	45,779
647,00	45,310
647,26	44,896
647,51	44,432
647,77	43,918
648,02	43,464
648,28	42,971
648,54	42,473
648,79	42,010
649,05	41,529
649,30	41,040
649,56	40,591
649,81	40,083
650,07	39,555
650,33	39,055
650,58	38,534
650,84	37,974
651,09	37,389
651,35	36,806
651,60	36,220
651,86	35,640
652,12	35,117
652,37	34,579
652,63	34,031
652,88	33,513
653,14	32,937
653,39	32,388
653,65	31,852
653,91	31,250
654,16	30,665
654,42	30,079
654,67	29,503
654,93	28,976
655,18	28,469
655,44	27,949
655,70	27,442
655,95	26,908
656,21	26,410
656,46	25,907
656,72	25,400
656,97	24,879
657,23	24,408
657,49	23,951
657,74	23,539
658,00	23,122
658,25	22,720
658,51	22,318
658,76	21,962
659,02	21,596
659,27	21,270
659,53	20,928
659,78	20,615
660,04	20,349
660,30	20,135
660,55	19,879
660,81	19,673
661,06	19,492
661,32	19,335
661,57	19,180
661,83	19,058
662,08	18,945
662,34	18,884
662,59	18,822
662,85	18,776
663,11	18,737
663,36	18,763
663,62	18,777
663,87	18,808
664,13	18,876
664,38	18,953
664,64	19,082
664,89	19,263
665,15	19,444
665,40	19,656
665,66	19,912
665,91	20,189
666,17	20,488
666,42	20,782
666,68	21,113
666,93	21,485
667,19	21,880
667,45	22,291
667,70	22,744
667,96	23,237
668,21	23,756
668,47	24,292
668,72	24,879
668,98	25,463
669,23	26,141
669,49	26,810
669,74	27,513
670,00	28,216
670,25	28,975
670,51	29,706
670,76	30,551
671,02	31,321
671,27	32,163
671,53	33,029
671,78	33,958
672,04	34,878
672,29	35,844
672,55	36,811
672,80	37,825
673,06	38,857
673,31	39,897
673,57	40,947
673,82	41,991
674,08	43,090
674,33	44,173
674,59	45,277
674,84	46,368
675,10	47,454
675,35	48,546
675,61	49,692
675,86	50,781
676,12	51,883
676,37	53,001
676,63	54,108
676,88	55,254
677,14	56,379
677,39	57,472
677,65	58,580
677,90	59,663
678,16	60,676
678,41	61,648
678,67	62,678
678,92	63,711
679,18	64,626
679,43	65,587
679,69	66,511
679,94	67,463
680,20	68,409
680,45	69,225
680,71	70,018
680,96	70,856
681,21	71,615
681,47	72,391
681,72	73,117
681,98	73,778
682,23	74,529
682,49	75,206
682,74	75,867
683,00	76,504
683,25	77,060
683,51	77,631
683,76	78,244
684,02	78,740
684,27	79,194
684,53	79,691
684,78	80,185
685,04	80,669
685,29	81,146
685,54	81,545
685,80	81,986
686,05	82,417
686,31	82,800
686,56	83,161
686,82	83,519
687,07	83,873
687,33	84,247
687,58	84,495
687,84	84,821
688,09	85,082
688,34	85,344
688,60	85,599
688,85	85,866
689,11	86,044
689,36	86,225
689,62	86,388
689,87	86,605
690,13	86,757
690,38	86,934
690,64	87,080
690,89	87,270
691,14	87,526
691,40	87,663
691,65	87,826
691,91	87,994
692,16	88,138
692,42	88,289
692,67	88,489
692,92	88,594
693,18	88,678
693,43	88,760
693,69	88,948
693,94	89,011
694,20	89,104
694,45	89,164
694,71	89,207
694,96	89,358
695,21	89,455
695,47	89,452
695,72	89,566
695,98	89,583
696,23	89,616
696,48	89,744
696,74	89,813
696,99	89,865
697,25	89,947
697,50	89,960
697,76	90,026
698,01	90,123
698,26	90,200
698,52	90,234
698,77	90,298
699,03	90,334
699,28	90,412
699,54	90,456
699,79	90,460
700,04	90,503
700,30	90,605
700,55	90,653
700,81	90,755
701,06	90,857
701,31	90,826
701,57	90,872
701,82	90,856
702,08	90,875
702,33	90,844
702,58	90,841
702,84	90,816
703,09	90,993
703,35	91,017
703,60	91,065
703,85	90,989
704,11	91,044
704,36	91,076
704,62	91,190
704,87	91,206
705,12	91,260
705,38	91,250
705,63	91,384
705,89	91,436
706,14	91,460
706,39	91,468
706,65	91,539
706,90	91,532
707,16	91,593
707,41	91,667
707,66	91,696
707,92	91,691
708,17	91,666
708,42	91,612
708,68	91,693
708,93	91,771
709,19	91,758
709,44	91,811
709,69	91,869
709,95	91,933
710,20	91,939
710,46	91,952
710,71	91,902
710,96	91,897
711,22	91,890
711,47	91,913
711,72	91,871
711,98	91,885
712,23	91,840
712,48	91,876
712,74	91,916
712,99	91,970
713,25	91,970
713,50	92,036
713,75	92,074
714,01	92,106
714,26	92,123
714,51	92,103
714,77	92,076
715,02	92,056
715,28	91,966
715,53	91,928
715,78	91,885
716,04	91,849
716,29	91,879
716,54	91,954
716,80	92,020
717,05	92,163
717,30	92,225
717,56	92,366
717,81	92,436
718,06	92,433
718,32	92,392
718,57	92,379
718,82	92,371
719,08	92,408
719,33	92,349
719,58	92,405
719,84	92,428
720,09	92,498
720,35	92,500
720,60	92,497
720,85	92,497
721,11	92,558
721,36	92,543
721,61	92,541
721,87	92,512
722,12	92,581
722,37	92,571
722,63	92,554
722,88	92,584
723,13	92,544
723,39	92,550
723,64	92,537
723,89	92,522
724,15	92,590
724,40	92,617
724,65	92,612
724,91	92,635
725,16	92,711
725,41	92,727
725,67	92,655
725,92	92,642
726,17	92,723
726,42	92,705
726,68	92,756
726,93	92,709
727,18	92,690
727,44	92,785
727,69	92,810
727,94	92,727
728,20	92,686
728,45	92,692
728,70	92,739
728,96	92,815
729,21	92,840
729,46	92,842
729,72	92,892
729,97	92,987
730,22	92,998
730,48	92,988
730,73	92,987
730,98	92,956
731,23	92,842
731,49	92,865
731,74	92,857
731,99	92,846
732,25	92,825
732,50	92,824
732,75	92,846
733,01	92,905
733,26	92,887
733,51	92,890
733,76	92,885
734,02	92,930
734,27	92,928
734,52	92,939
734,78	93,015
735,03	93,055
735,28	93,065
735,54	93,059
735,79	93,118
736,04	93,081
736,29	93,062
736,55	93,074
736,80	92,996
737,05	93,015
737,31	92,969
737,56	92,797
737,81	92,793
738,06	92,767
738,32	92,753
738,57	92,762
738,82	92,724
739,07	92,849
739,33	92,993
739,58	93,014
739,83	93,077
740,09	93,054
740,34	93,137
740,59	93,194
740,84	93,179
741,10	93,078
741,35	93,151
741,60	93,146
741,86	93,215
742,11	93,184
742,36	93,151
742,61	93,190
742,87	93,297
743,12	93,277
743,37	93,303
743,62	93,281
743,88	93,342
744,13	93,357
744,38	93,252
744,63	93,267
744,89	93,302
745,14	93,326
745,39	93,293
745,64	93,291
745,90	93,327
746,15	93,392
746,40	93,386
746,65	93,322
746,91	93,328
747,16	93,336
747,41	93,305
747,66	93,295
747,92	93,309
748,17	93,388
748,42	93,488
748,67	93,448
748,93	93,508
749,18	93,554
749,43	93,576
749,68	93,579
749,94	93,576
750,19	93,552
750,44	93,583
750,69	93,590
750,95	93,568
751,20	93,590
751,45	93,583
751,70	93,505
751,96	93,545
752,21	93,597
752,46	93,670
752,71	93,772
752,96	93,792
753,22	93,879
753,47	93,991
753,72	93,966
753,97	93,928
754,23	93,870
754,48	93,785
754,73	93,795
754,98	93,794
755,24	93,716
755,49	93,712
755,74	93,652
755,99	93,582
756,24	93,607
756,50	93,646
756,75	93,684
757,00	93,697
757,25	93,719
757,50	93,788
757,76	93,804
758,01	93,736
758,26	93,688
758,51	93,605
758,77	93,665
759,02	93,731
759,27	93,744
759,52	93,760
759,77	93,820
760,03	93,787
760,28	93,800
760,53	93,788
760,78	93,716
761,03	93,726
761,29	93,791
761,54	93,822
761,79	93,816
762,04	93,815
762,29	93,716
762,55	93,752
762,80	93,704
763,05	93,671
763,30	93,620
763,55	93,685
763,81	93,740
764,06	93,806
764,31	93,776
764,56	93,790
764,81	93,787
765,07	93,798
765,32	93,749
765,57	93,690
765,82	93,720
766,07	93,823
766,32	93,837
766,58	93,855
766,83	93,861
767,08	93,870
767,33	93,909
767,58	93,884
767,84	93,800
768,09	93,812
768,34	93,761
768,59	93,758
768,84	93,750
769,09	93,765
769,35	93,773
769,60	93,796
769,85	93,831
770,10	93,868
770,35	93,901
770,60	93,907
770,86	93,881
771,11	93,911
771,36	93,893
771,61	93,828
771,86	93,820
772,11	93,790
772,37	93,900
772,62	93,962
772,87	93,941
773,12	93,954
773,37	94,020
773,62	94,113
773,88	94,114
774,13	94,071
774,38	93,991
774,63	93,933
774,88	93,978
775,13	94,075
775,38	94,129
775,64	94,219
775,89	94,235
776,14	94,283
776,39	94,365
776,64	94,354
776,89	94,264
777,15	94,129
777,40	94,113
777,65	94,128
777,90	94,146
778,15	94,203
778,40	94,233
778,65	94,255
778,91	94,304
779,16	94,241
779,41	94,159
779,66	94,152
779,91	94,008
780,16	93,886
780,41	93,855
780,66	93,820
780,92	93,850
781,17	93,876
781,42	93,889
781,67	94,047
781,92	94,178
782,17	94,159
782,42	94,175
782,68	94,199
782,93	94,215
783,18	94,184
783,43	94,153
783,68	94,106
783,93	94,266
784,18	94,354
784,43	94,322
784,69	94,305
784,94	94,279
785,19	94,238
785,44	94,209
785,69	94,138
785,94	94,136
786,19	94,176
786,44	94,192
786,69	94,259
786,95	94,263
787,20	94,398
787,45	94,412
787,70	94,424
787,95	94,373
788,20	94,375
788,45	94,363
788,70	94,350
788,95	94,241
789,21	94,172
789,46	94,115
789,71	94,151
789,96	94,231
790,21	94,289
790,46	94,372
790,71	94,422
790,96	94,470
791,21	94,413
791,46	94,387
791,72	94,294
791,97	94,248
792,22	94,144
792,47	94,181
792,72	94,132
792,97	94,220
793,22	94,245
793,47	94,252
793,72	94,203
793,97	94,227
794,22	94,198
794,47	94,221
794,73	94,249
794,98	94,308
795,23	94,362
795,48	94,410
795,73	94,490
795,98	94,477
796,23	94,534
796,48	94,487
796,73	94,409
796,98	94,366
797,23	94,335
797,48	94,193
797,74	94,202
797,99	94,137
798,24	94,102
798,49	94,166
798,74	94,187
798,99	94,194
799,24	94,342
799,49	94,299
799,74	94,244
799,99	94,297
800,24	94,275
800,49	94,247
800,74	94,268
800,99	94,229
801,24	94,207
801,50	94,319
801,75	94,237
802,00	94,179
802,25	94,154
802,50	94,159
802,75	94,244
803,00	94,320
803,25	94,349
803,50	94,444
803,75	94,485
804,00	94,446
804,25	94,438
804,50	94,364
804,75	94,394
805,00	94,373
805,25	94,337
805,50	94,299
805,75	94,352
806,00	94,337
806,26	94,336
806,51	94,343
806,76	94,332
807,01	94,351
807,26	94,431
807,51	94,434
807,76	94,472
808,01	94,420
808,26	94,335
808,51	94,294
808,76	94,325
809,01	94,379
809,26	94,405
809,51	94,328
809,76	94,366
810,01	94,328
810,26	94,332
810,51	94,264
810,76	94,200
811,01	94,284
811,26	94,364
811,51	94,315
811,76	94,328
812,01	94,301
812,26	94,405
812,51	94,374
812,76	94,334
813,01	94,318
813,26	94,407
813,51	94,500
813,76	94,620
814,01	94,614
814,26	94,664
814,51	94,671
814,76	94,714
815,02	94,700
815,27	94,590
815,52	94,452
815,77	94,389
816,02	94,364
816,27	94,377
816,52	94,392
816,77	94,390
817,02	94,485
817,27	94,556
817,52	94,624
817,77	94,605
818,02	94,652
818,27	94,543
818,52	94,533
818,77	94,526
819,02	94,535
819,27	94,485
819,52	94,526
819,77	94,419
820,02	94,466
820,27	94,504
820,52	94,522
820,77	94,567
821,02	94,568
821,27	94,674
821,52	94,866
821,77	94,927
822,02	94,985
822,26	95,044
822,51	94,966
822,76	94,998
823,01	94,822
823,26	94,636
823,51	94,677
823,76	94,593
824,01	94,530
824,26	94,553
824,51	94,570
824,76	94,707
825,01	94,752
825,26	94,642
825,51	94,626
825,76	94,652
826,01	94,671
826,26	94,675
826,51	94,693
826,76	94,762
827,01	94,881
827,26	94,970
827,51	95,006
827,76	95,024
828,01	95,053
828,26	94,981
828,51	94,961
828,76	94,910
829,01	94,888
829,26	94,867
829,51	94,848
829,76	94,781
830,01	94,735
830,26	94,672
830,51	94,736
830,76	94,817
831,00	94,936
831,25	94,997
831,50	95,103
831,75	95,155
832,00	95,254
832,25	95,243
832,50	95,131
832,75	94,991
833,00	95,010
833,25	94,952
833,50	95,045
833,75	94,938
834,00	94,839
834,25	94,926
834,50	94,984
834,75	94,992
835,00	95,057
835,25	95,064
835,50	95,140
835,74	95,234
835,99	95,323
836,24	95,325
836,49	95,268
836,74	95,180
836,99	95,133
837,24	95,168
837,49	95,223
837,74	95,035
837,99	95,013
838,24	94,973
838,49	95,085
838,74	95,148
838,99	95,202
839,24	95,111
839,48	95,163
839,73	95,162
839,98	95,342
840,23	95,349
840,48	95,332
840,73	95,221
840,98	95,298
841,23	95,376
841,48	95,441
841,73	95,376
841,98	95,309
842,23	95,273
842,48	95,283
842,72	95,338
842,97	95,336
843,22	95,322
843,47	95,369
843,72	95,429
843,97	95,458
844,22	95,559
844,47	95,550
844,72	95,535
844,97	95,532
845,22	95,557
845,46	95,523
845,71	95,504
845,96	95,457
846,21	95,427
846,46	95,433
846,71	95,428
846,96	95,402
847,21	95,432
847,46	95,435
847,71	95,481
847,95	95,454
848,20	95,503
848,45	95,450
848,70	95,298
848,95	95,322
849,20	95,363
849,45	95,380
849,70	95,394
849,95	95,267
850,19	95,363
850,44	95,560
850,69	95,550
850,94	95,606
851,19	95,582
851,44	95,646
851,69	95,810
851,94	95,836
852,19	95,784
852,43	95,765
852,68	95,741
852,93	95,805
853,18	95,860
853,43	95,828
853,68	95,796
853,93	95,874
854,18	95,950
854,42	95,997
854,67	95,924
854,92	95,854
855,17	95,839
855,42	95,931
855,67	95,956
855,92	95,881
856,16	95,908
856,41	95,990
856,66	95,936
856,91	95,920
857,16	95,837
857,41	95,744
857,66	95,824
857,91	95,810
858,15	95,804
858,40	95,924
858,65	95,939
858,90	95,931
859,15	95,941
859,40	95,864
859,65	95,822
859,89	95,713
860,14	95,673
860,39	95,687
860,64	95,754
860,89	95,834
861,14	95,916
861,38	95,871
861,63	95,986
861,88	95,959
862,13	95,920
862,38	95,844
862,63	95,762
862,88	95,802
863,12	95,869
863,37	95,887
863,62	95,912
863,87	95,958
864,12	96,064
864,37	96,056
864,61	95,984
864,86	95,939
865,11	95,837
865,36	95,896
865,61	95,959
865,86	95,912
866,10	95,979
866,35	96,039
866,60	96,065
866,85	96,066
867,10	96,047
867,35	95,987
867,59	96,037
867,84	96,034
868,09	96,007
868,34	95,983
868,59	96,032
868,83	95,957
869,08	95,990
869,33	95,900
869,58	95,895
869,83	95,889
870,08	95,913
870,32	95,885
870,57	95,889
870,82	95,838
871,07	95,843
871,32	95,797
871,56	95,900
871,81	95,901
872,06	96,025
872,31	96,012
872,56	96,007
872,81	96,042
873,05	96,077
873,30	95,988
873,55	96,031
873,80	95,880
874,05	95,909
874,29	95,911
874,54	95,928
874,79	95,961
875,04	95,895
875,29	95,881
875,53	95,975
875,78	96,133
876,03	96,230
876,28	96,155
876,52	96,155
876,77	96,371
877,02	96,352
877,27	96,333
877,52	96,185
877,76	96,062
878,01	96,183
878,26	96,221
878,51	96,102
878,76	96,210
879,00	96,247
879,25	96,309
879,50	96,361
879,75	96,274
880,00	96,257
880,24	96,238
880,49	96,232
880,74	96,209
880,99	96,227
881,23	96,222
881,48	96,240
881,73	96,150
881,98	96,124
882,22	96,018
882,47	95,946
882,72	95,870
882,97	95,881
883,22	95,940
883,46	96,093
883,71	96,082
883,96	96,136
884,21	96,276
884,45	96,329
884,70	96,391
884,95	96,379
885,20	96,386
885,44	96,464
885,69	96,481
885,94	96,481
886,19	96,524
886,43	96,600
886,68	96,493
886,93	96,448
887,18	96,450
887,42	96,435
887,67	96,406
887,92	96,371
888,17	96,274
888,42	96,371
888,66	96,338
888,91	96,349
889,16	96,427
889,40	96,400
889,65	96,365
889,90	96,378
890,15	96,357
890,39	96,395
890,64	96,335
890,89	96,297
891,14	96,316
891,38	96,328
891,63	96,339
891,88	96,365
892,13	96,316
892,37	96,269
892,62	96,214
892,87	96,130
893,12	96,229
893,36	96,178
893,61	96,145
893,86	96,092
894,11	96,196
894,35	96,124
894,60	96,116
894,85	95,974
895,09	95,955
895,34	95,919
895,59	95,901
895,84	95,793
896,08	95,824
896,33	95,819
896,58	95,708
896,82	95,713
897,07	95,640
897,32	95,568
897,57	95,568
897,81	95,476
898,06	95,448
898,31	95,496
898,55	95,431
898,80	95,335
899,05	95,189
899,30	95,024
899,54	94,970
899,79	94,871
900,04	94,815
900,28	94,709
900,53	94,743
900,78	94,868
901,03	94,900
901,27	94,854
901,52	94,814
901,77	94,695
902,01	94,646
902,26	94,635
902,51	94,502
902,75	94,396
903,00	94,368
903,25	94,355
903,50	94,343
903,74	94,414
903,99	94,296
904,24	94,222
904,48	94,277
904,73	94,206
904,98	94,123
905,22	94,101
905,47	93,913
905,72	93,946
905,96	94,006
906,21	93,883
906,46	93,854
906,70	93,881
906,95	93,863
907,20	93,968
907,45	93,863
907,69	93,841
907,94	93,882
908,19	93,964
908,43	93,907
908,68	93,927
908,93	93,893
909,17	94,031
909,42	94,034
909,67	94,127
909,91	94,292
910,16	94,446
910,41	94,539
910,65	94,618
910,90	94,752
911,15	94,880
911,39	94,985
911,64	94,876
911,89	94,913
912,13	94,950
912,38	95,032
912,63	95,108
912,87	95,203
913,12	95,184
913,37	95,174
913,61	95,214
913,86	95,361
914,11	95,387
914,35	95,368
914,60	95,397
914,85	95,450
915,09	95,536
915,34	95,551
915,58	95,488
915,83	95,547
916,08	95,568
916,32	95,590
916,57	95,596
916,82	95,701
917,06	95,753
917,31	95,829
917,56	95,823
917,80	95,857
918,05	95,872
918,30	95,984
918,54	95,902
918,79	95,871
919,04	95,833
919,28	95,856
919,53	95,883
919,77	95,891
920,02	95,852
920,27	95,968
920,51	95,989
920,76	96,075
921,01	96,110
921,25	96,127
921,50	96,153
921,74	96,206
921,99	96,277
922,24	96,390
922,48	96,429
922,73	96,477
922,98	96,477
923,22	96,483
923,47	96,501
923,71	96,488
923,96	96,532
924,21	96,540
924,45	96,578
924,70	96,651
924,95	96,732
925,19	96,740
925,44	96,756
925,68	96,698
925,93	96,764
926,18	96,757
926,42	96,753
926,67	96,789
926,91	96,834
927,16	96,900
927,41	96,990
927,65	96,957
927,90	96,963
928,14	96,960
928,39	96,977
928,64	96,987
928,88	97,004
929,13	97,035
929,37	97,072
929,62	97,194
929,87	97,269
930,11	97,309
930,36	97,417
930,60	97,430
930,85	97,414
931,10	97,467
931,34	97,482
931,59	97,500
931,83	97,459
932,08	97,401
932,33	97,491
932,57	97,558
932,82	97,516
933,06	97,541
933,31	97,560
933,56	97,624
933,80	97,639
934,05	97,604
934,29	97,648
934,54	97,722
934,78	97,745
935,03	97,777
935,28	97,847
935,52	97,950
935,77	97,975
936,01	97,961
936,26	97,999
936,51	98,027
936,75	98,046
937,00	98,098
937,24	98,165
937,49	98,223
937,73	98,258
937,98	98,351
938,22	98,384
938,47	98,534
938,72	98,535
938,96	98,509
939,21	98,613
939,45	98,808
939,70	98,934
939,94	99,053
940,19	99,069
940,44	99,161
940,68	99,337
940,93	99,429
941,17	99,456
941,42	99,502
941,66	99,524
941,91	99,648
942,15	99,782
942,40	99,841
942,65	99,908
942,89	100,010
943,14	100,049
943,38	100,171
943,63	100,263
943,87	100,321
944,12	100,476
944,36	100,571
944,61	100,605
944,85	100,749
945,10	100,872
945,35	100,949
945,59	101,087
945,84	101,173
946,08	101,352
946,33	101,538
946,57	101,670
946,82	101,830
947,06	101,958
947,31	102,066
947,55	102,167
947,80	102,268
948,04	102,399
948,29	102,436
948,54	102,570
948,78	102,799
949,03	103,007
949,27	103,111
949,52	103,223
949,76	103,278
950,01	103,433
950,25	103,526
950,50	103,540
950,74	103,627
950,99	103,738
951,23	103,839
951,48	103,966
951,72	104,078
951,97	104,184
952,21	104,289
952,46	104,315
952,70	104,329
952,95	104,405
953,19	104,499
953,44	104,536
953,68	104,584
953,93	104,648
954,17	104,752
954,42	104,887
954,66	104,998
954,91	105,156
955,15	105,296
955,40	105,359
955,64	105,336
955,89	105,295
956,13	105,339
956,38	105,171
956,62	105,015
956,87	104,987
957,11	104,992
957,36	105,095
957,60	105,222
957,85	105,165
958,09	105,318
958,34	105,390
958,58	105,456
958,83	105,452
959,07	105,484
959,32	105,416
959,56	105,532
959,81	105,600
960,05	105,671
960,30	105,770
960,54	105,735
960,79	105,735
961,03	105,845
961,28	105,802
961,52	105,768
961,77	105,851
962,01	105,840
962,26	106,023
962,50	106,106
962,75	106,189
962,99	106,407
963,24	106,577
963,48	106,668
963,73	106,779
963,97	106,783
964,21	106,839
964,46	106,857
964,70	106,803
964,95	106,779
965,19	106,792
965,44	106,862
965,68	106,969
965,93	107,081
966,17	107,157
966,42	107,271
966,66	107,456
966,91	107,571
967,15	107,639
967,40	107,647
967,64	107,682
967,88	107,791
968,13	107,975
968,37	107,921
968,62	107,983
968,86	108,026
969,11	108,186
969,35	108,180
969,60	108,153
969,84	108,078
970,09	108,176
970,33	108,166
970,57	108,217
970,82	108,188
971,06	108,217
971,31	108,268
971,55	108,204
971,80	108,212
972,04	108,213
972,29	108,157
972,53	108,105
972,77	108,222
973,02	108,195
973,26	108,281
973,51	108,240
973,75	108,288
974,00	108,356
974,24	108,529
974,48	108,458
974,73	108,581
974,97	108,688
975,22	108,772
975,46	108,856
975,71	108,801
975,95	108,778
976,19	108,868
976,44	108,868
976,68	108,827
976,93	108,842
977,17	108,818
977,42	108,836
977,66	108,832
977,90	108,829
978,15	108,905
978,39	108,956
978,64	108,934
978,88	108,848
979,12	108,886
979,37	108,790
979,61	108,812
979,86	108,704
980,10	108,717
980,35	108,592
980,59	108,530
980,83	108,438
981,08	108,438
981,32	108,368
981,57	108,323
981,81	108,254
982,05	108,375
982,30	108,380
982,54	108,474
982,79	108,525
983,03	108,419
983,27	108,381
983,52	108,279
983,76	108,300
984,01	108,398
984,25	108,380
984,49	108,342
984,74	108,497
984,98	108,577
985,23	108,568
985,47	108,550
985,71	108,411
985,96	108,249
986,20	108,328
986,45	108,187
986,69	108,170
986,93	108,306
987,18	108,322
987,42	108,365
987,66	108,462
987,91	108,399
988,15	108,419
988,40	108,406
988,64	108,208
988,88	108,083
989,13	108,064
989,37	107,950
989,61	107,714
989,86	107,685
990,10	107,568
990,35	107,522
990,59	107,537
990,83	107,497
991,08	107,537
991,32	107,604
991,56	107,549
991,81	107,502
992,05	107,555
992,30	107,415
992,54	107,343
992,78	107,261
993,03	107,144
993,27	107,054
993,51	106,903
993,76	106,894
994,00	106,878
994,24	107,000
994,49	106,973
994,73	107,008
994,98	107,088
995,22	107,235
995,46	107,091
995,71	107,118
995,95	106,811
996,19	106,870
996,44	106,861
996,68	106,903
996,92	106,738
997,17	106,761
997,41	106,612
997,65	106,711
997,90	106,516
998,14	106,504
998,38	106,244
998,63	106,186
998,87	106,127
999,11	106,166
999,36	105,996
999,60	105,839
999,84	105,782
1000,09	105,795
1000,33	105,821
1000,57	105,646
1000,82	105,557
1001,06	105,526
1001,30	105,700
1001,55	105,522
1001,79	105,532
1002,03	105,370
1002,28	105,250
1002,52	105,183
1002,76	105,247
1003,01	104,997
1003,25	105,001
1003,49	104,870
1003,74	104,915
1003,98	104,985
1004,22	104,921
1004,47	104,841
1004,71	104,832
1004,95	104,777
1005,20	104,718
1005,44	104,610
1005,68	104,658
1005,93	104,662
1006,17	104,613
1006,41	104,675
1006,66	104,666
1006,90	104,543
1007,14	104,437
1007,38	104,237
1007,63	104,112
1007,87	104,039
1008,11	103,889
1008,36	103,847
1008,60	103,940
1008,84	103,921
1009,09	103,863
1009,33	103,736
1009,57	103,506
1009,81	103,477
1010,06	103,434
1010,30	103,180
1010,54	103,096
1010,79	103,080
1011,03	103,008
1011,27	103,198
1011,52	103,220
1011,76	103,145
1012,00	103,327
1012,24	103,463
1012,49	103,339
1012,73	103,502
1012,97	103,421
1013,22	103,318
1013,46	103,278
1013,70	103,110
1013,94	102,909
1014,19	102,862
1014,43	102,768
1014,67	102,622
1014,92	102,508
1015,16	102,426
1015,40	102,279
1015,64	102,140
1015,89	102,230
1016,13	102,072
1016,37	102,078
1016,62	102,108
1016,86	102,093
1017,10	102,225
1017,34	102,397
1017,59	102,434
1017,83	102,486
1018,07	102,375
1018,31	102,436
1018,56	102,446
1018,80	102,468
1019,04	102,412
1019,28	102,249
1019,53	102,103
1019,77	102,246
1020,01	102,148
1020,26	101,904
1020,50	101,720
1020,74	101,602
1020,98	101,592
1021,23	101,608
1021,47	101,446
1021,71	101,374
1021,95	101,591
1022,20	101,495
1022,44	101,522
1022,68	101,548
1022,92	101,537
1023,17	101,644
1023,41	101,600
1023,65	101,449
1023,89	101,506
1024,14	101,379
1024,38	101,324
1024,62	101,259
1024,86	101,052
1025,11	100,937
1025,35	100,994
1025,59	100,928
1025,83	100,956
1026,07	100,862
1026,32	100,929
1026,56	101,049
1026,80	101,026
1027,04	100,833
1027,29	100,799
1027,53	100,777
1027,77	100,667
1028,01	100,605
1028,26	100,532
1028,50	100,706
1028,74	100,762
1028,98	100,826
1029,22	100,719
1029,47	100,799
1029,71	100,738
1029,95	100,681
1030,19	100,596
1030,44	100,601
1030,68	100,581
1030,92	100,762
1031,16	100,804
1031,40	100,846
1031,65	100,977
1031,89	100,990
1032,13	101,048
1032,37	100,819
1032,62	100,727
1032,86	100,605
1033,10	100,420
1033,34	100,294
1033,58	100,296
1033,83	100,074
1034,07	100,198
1034,31	100,070
1034,55	99,970
1034,79	99,960
1035,04	99,710
1035,28	99,506
1035,52	99,649
1035,76	99,592
1036,00	99,530
1036,25	99,721
1036,49	100,001
1036,73	100,181
1036,97	100,203
1037,21	100,163
1037,46	100,215
1037,70	100,099
1037,94	99,850
1038,18	99,625
1038,42	99,442
1038,67	99,347
1038,91	99,167
1039,15	99,125
1039,39	99,296
1039,63	99,254
1039,88	99,313
1040,12	99,455
1040,36	99,456
1040,60	99,502
1040,84	99,439
1041,08	99,410
1041,33	99,330
1041,57	99,054
1041,81	98,905
1042,05	98,786
1042,29	98,579
1042,53	98,513
1042,78	98,232
1043,02	98,266
1043,26	98,442
1043,50	98,305
1043,74	98,312
1043,99	98,386
1044,23	98,583
1044,47	98,722
1044,71	98,816
1044,95	98,602
1045,19	98,800
1045,44	98,780
1045,68	99,096
1045,92	98,859
1046,16	98,987
1046,40	99,189
1046,64	99,299
1046,88	99,225
1047,13	99,213
1047,37	98,863
1047,61	98,827
1047,85	98,728
1048,09	98,498
1048,33	98,536
1048,58	98,684
1048,82	98,735
1049,06	98,605
1049,30	98,497
1049,54	98,465
1049,78	98,390
1050,02	98,041
1050,27	97,599
1050,51	97,473
1050,75	97,749
1050,99	97,819
1051,23	97,769
1051,47	97,663
1051,71	98,003
1051,96	98,087
1052,20	98,096
1052,44	97,990
1052,68	97,701
1052,92	97,704
1053,16	97,795
1053,40	97,764
1053,65	97,929
1053,89	98,084
1054,13	97,928
1054,37	98,165
1054,61	98,200
1054,85	98,224
1055,09	98,045
1055,33	98,095
1055,58	97,871
1055,82	97,855
1056,06	97,944
1056,30	97,798
1056,54	97,806
1056,78	98,091
1057,02	97,976
1057,26	97,973
1057,51	98,017
1057,75	98,063
1057,99	98,077
1058,23	97,916
1058,47	97,760
1058,71	97,809
1058,95	98,087
1059,19	98,169
1059,43	98,202
1059,68	98,333
1059,92	98,594
1060,16	98,654
1060,40	98,618
1060,64	98,293
1060,88	98,212
1061,12	98,251
1061,36	98,093
1061,60	98,082
1061,84	97,867
1062,09	97,700
1062,33	97,849
1062,57	97,859
1062,81	97,410
1063,05	97,091
1063,29	97,115
1063,53	97,258
1063,77	97,029
1064,01	96,782
1064,25	96,677
1064,50	96,561
1064,74	96,934
1064,98	96,675
1065,22	96,558
1065,46	97,187
1065,70	97,780
1065,94	98,187
1066,18	98,831
1066,42	99,063
1066,66	99,225
1066,90	99,405
1067,14	99,383
1067,39	99,331
1067,63	98,962
1067,87	98,822
1068,11	98,607
1068,35	98,590
1068,59	98,511
1068,83	98,646
1069,07	98,385
1069,31	98,953
1069,55	99,251
1069,79	99,438
1070,03	99,156
1070,27	99,201
1070,52	98,699
1070,76	98,402
1071,00	98,012
1071,24	97,621
1071,48	97,585
1071,72	98,039
1071,96	98,103
1072,20	98,287
1072,44	99,048
1072,68	99,045
1072,92	99,126
1073,16	99,265
1073,40	98,961
1073,64	98,935
1073,88	98,930
1074,12	98,592
1074,36	98,729
1074,61	98,678
1074,85	98,426
1075,09	98,469
1075,33	98,332
1075,57	98,492
1075,81	98,788
1076,05	98,752
1076,29	98,593
1076,53	98,329
1076,77	98,047
1077,01	98,327
1077,25	97,987
1077,49	97,816
1077,73	97,873
1077,97	98,149
1078,21	98,523
1078,45	99,000
1078,69	99,034
1078,93	99,239
1079,17	98,914
1079,41	98,984
1079,65	99,072
1079,89	99,228
1080,13	98,511
1080,37	97,609
1080,61	97,904
1080,86	97,761
1081,10	97,439
1081,34	97,374
1081,58	97,135
1081,82	97,574
1082,06	98,253
1082,30	97,883
1082,54	97,983
1082,78	97,681
1083,02	97,706
1083,26	97,758
1083,50	98,271
1083,74	98,311
1083,98	98,889
1084,22	99,389
1084,46	99,895
1084,70	99,401
1084,94	99,240
1085,18	98,789
1085,42	98,330
1085,66	98,038
1085,90	97,251
1086,14	97,513
1086,38	98,362
1086,62	98,868
1086,86	98,816
1087,10	99,679
1087,34	100,310
1087,58	100,639
1087,82	99,817
1088,06	99,658
1088,30	99,136
1088,54	99,823
1088,78	99,326
1089,02	97,950
1089,26	97,984
1089,50	98,991
1089,74	98,828
1089,98	98,746
1090,22	97,763
1090,46	98,044
1090,70	98,810
1090,94	99,005
1091,18	98,677
1091,42	98,365
1091,66	98,609
1091,90	98,957
1092,14	98,877
1092,38	99,021
1092,62	99,280
1092,86	99,458
1093,10	100,050
1093,34	100,611
1093,58	101,134
1093,82	101,480
1094,06	100,845
1094,30	100,411
1094,54	99,695
1094,78	99,853
1095,01	99,087
1095,25	98,563
1095,49	97,933
1095,73	98,878
1095,97	99,328
1096,21	99,944
1096,45	100,043
1096,69	100,295
1096,93	100,090
1097,17	100,202
1097,41	99,494
1097,65	98,814
1097,89	98,699
1098,13	97,642
1098,37	98,005
1098,61	98,637
1098,85	98,598
1099,09	99,415
1099,33	100,254
1099,57	99,493
1099,81	99,530
1100,05	99,637
1100,29	99,274
1100,53	99,218
1100,77	99,146
1101,00	98,958
1101,24	99,854
1101,48	100,603
1101,72	100,631
1101,96	100,456
1102,20	100,952
1102,44	100,286
1102,68	99,824
1102,92	98,958
1103,16	99,129
1103,40	99,457
1103,64	100,981
1103,88	100,817
1104,12	101,169
1104,36	101,257
1104,60	102,675
1104,84	101,891
1105,07	102,028
1105,31	100,681
1105,55	99,957
1105,79	100,067
1106,03	101,436
1106,27	100,022
1106,51	100,867
1106,75	99,920
1106,99	100,169
1107,23	101,276
1107,47	100,337
1107,71	98,384
1107,95	100,215
1108,18	100,402
1108,42	101,280
1108,66	102,076
1108,90	101,586
1109,14	102,952
1109,38	104,591
1109,62	103,101
1109,86	103,157
1110,10	103,256
1110,34	102,343
1110,58	103,426
1110,82	103,524
1111,05	105,779
1111,29	108,235
1111,53	107,461
1111,77	107,033
1112,01	107,887
1112,25	107,979
1112,49	105,522
1112,73	101,536
1112,97	100,052
1113,21	99,782
1113,45	98,809
1113,68	98,488
1113,92	99,477
1114,16	101,945
1114,40	104,036
1114,64	103,059
1114,88	104,348
1115,12	105,611
1115,36	107,732
1115,60	106,557
1115,83	105,608
1116,07	105,333
1116,31	105,415
1116,55	104,339
1116,79	104,248
1117,03	101,559
1117,27	101,096
1117,51	101,416
1117,75	100,354
1117,98	101,846
1118,22	101,582
1118,46	102,414
1118,70	102,145
1118,94	101,686
1119,18	99,316
1119,42	98,016
1119,66	99,796
1119,89	100,403
1120,13	98,862
1120,37	100,126
1120,61	100,180
1120,85	101,783
1121,09	106,028
1121,33	101,115
1121,57	101,631
1121,80	101,110
1122,04	104,002
1122,28	106,651
1122,52	106,552
1122,76	102,271
1123,00	105,303
1123,24	94,227
1123,47	91,231
1123,71	103,278
>>>>>End Processed Spectral Data<<<<<
