SpectraSuite Data File
++++++++++++++++++++++++++++++++++++
Date: Sun Jan 01 01:00:42 GMT-03:00 2006
User: Lavfis
Dark Spectrum Present: Yes
Reference Spectrum Present: Yes
Number of Sampled Component Spectra: 1
Spectrometers: HR4C5405
Integration Time (usec): 4000 (HR4C5405)
Spectra Averaged: 5 (HR4C5405)
Boxcar Smoothing: 3 (HR4C5405)
Correct for Electrical Dark: Yes (HR4C5405)
Strobe/Lamp Enabled: No (HR4C5405)
Correct for Detector Non-linearity: No (HR4C5405)
Correct for Stray Light: No (HR4C5405)
Number of Pixels in Processed Spectrum: 3648
>>>>>Begin Processed Spectral Data<<<<<
194,53	5,263
194,80	-59,306
195,07	-59,306
195,34	-69,141
195,61	-23,174
195,88	-15,964
196,15	-12,733
196,42	108,727
196,69	386,027
196,96	-577,852
197,23	210,018
197,50	-69,972
197,77	72,370
198,04	-5094,068
198,31	-53,382
198,58	-49,462
198,85	-49,300
199,12	-47,913
199,39	-35,374
199,66	-18,995
199,93	-16,693
200,20	-22,059
200,47	-24,954
200,74	-39,375
201,01	-11,873
201,28	0,950
201,55	-7,354
201,82	9,861
202,09	41,417
202,36	36,844
202,63	36,844
202,90	0,098
203,17	-25,291
203,44	1,380
203,71	-6,826
203,98	-9,122
204,25	0,116
204,52	3,640
204,79	41,764
205,06	55,584
205,33	59,115
205,60	66,531
205,86	67,481
206,13	84,047
206,40	72,487
206,67	43,370
206,94	-17,755
207,21	19,856
207,48	26,017
207,75	-8,014
208,02	-27,226
208,29	-1,236
208,56	5,892
208,83	21,576
209,10	11,624
209,37	6,115
209,64	7,540
209,91	9,684
210,18	-0,734
210,45	-14,707
210,72	-41,715
210,99	-74,852
211,26	-67,248
211,53	13,013
211,80	34,051
212,07	60,490
212,33	64,157
212,60	64,714
212,87	47,013
213,14	46,882
213,41	16,057
213,68	15,426
213,95	2,134
214,22	-7,861
214,49	6,339
214,76	9,515
215,03	6,529
215,30	12,387
215,57	11,746
215,84	12,108
216,11	12,654
216,38	15,195
216,65	22,303
216,91	38,192
217,18	33,427
217,45	35,377
217,72	40,495
217,99	50,217
218,26	51,365
218,53	42,994
218,80	30,261
219,07	35,044
219,34	36,258
219,61	28,321
219,88	21,500
220,15	17,267
220,42	13,712
220,68	16,751
220,95	15,952
221,22	13,664
221,49	10,168
221,76	11,133
222,03	10,751
222,30	9,893
222,57	6,438
222,84	1,829
223,11	-2,336
223,38	4,314
223,65	-3,440
223,92	-5,838
224,18	-6,805
224,45	-7,478
224,72	-7,050
224,99	-4,713
225,26	-7,157
225,53	-3,195
225,80	-0,539
226,07	2,028
226,34	4,535
226,61	7,126
226,88	4,924
227,14	4,910
227,41	6,068
227,68	3,424
227,95	3,844
228,22	4,546
228,49	4,497
228,76	4,520
229,03	5,886
229,30	5,605
229,57	7,397
229,83	8,438
230,10	6,898
230,37	5,916
230,64	8,606
230,91	8,006
231,18	8,421
231,45	6,674
231,72	6,026
231,99	6,838
232,25	7,011
232,52	5,728
232,79	5,487
233,06	5,575
233,33	6,468
233,60	6,443
233,87	6,864
234,14	6,159
234,41	7,758
234,67	8,465
234,94	7,647
235,21	7,568
235,48	7,925
235,75	8,297
236,02	8,451
236,29	5,249
236,56	4,888
236,82	4,154
237,09	4,924
237,36	5,133
237,63	3,734
237,90	5,248
238,17	7,142
238,44	5,916
238,71	8,850
238,97	8,530
239,24	7,228
239,51	8,126
239,78	8,652
240,05	10,616
240,32	12,801
240,59	10,055
240,86	10,237
241,12	11,409
241,39	9,874
241,66	10,074
241,93	9,750
242,20	7,721
242,47	8,681
242,74	10,268
243,00	10,057
243,27	11,712
243,54	9,246
243,81	8,598
244,08	6,845
244,35	9,819
244,62	9,315
244,88	6,110
245,15	2,035
245,42	7,836
245,69	10,645
245,96	17,938
246,23	13,562
246,50	12,199
246,76	11,924
247,03	17,041
247,30	13,189
247,57	3,238
247,84	2,938
248,11	12,183
248,37	10,055
248,64	9,927
248,91	8,986
249,18	7,628
249,45	6,615
249,72	1,567
249,99	-5,425
250,25	-3,686
250,52	0,984
250,79	1,680
251,06	1,770
251,33	8,491
251,60	11,557
251,86	13,982
252,13	15,429
252,40	15,044
252,67	14,077
252,94	15,226
253,21	14,485
253,47	13,532
253,74	11,413
254,01	11,169
254,28	11,056
254,55	11,102
254,81	10,964
255,08	9,234
255,35	9,912
255,62	9,866
255,89	9,135
256,16	8,634
256,42	8,760
256,69	7,927
256,96	8,414
257,23	8,184
257,50	8,181
257,76	8,574
258,03	8,777
258,30	8,810
258,57	9,633
258,84	9,775
259,11	10,385
259,37	11,024
259,64	11,545
259,91	11,419
260,18	11,321
260,45	10,748
260,71	10,918
260,98	10,229
261,25	9,819
261,52	9,373
261,79	9,694
262,05	9,931
262,32	10,431
262,59	10,434
262,86	10,536
263,13	10,606
263,39	10,613
263,66	10,496
263,93	10,532
264,20	10,554
264,47	10,403
264,73	10,487
265,00	10,602
265,27	10,719
265,54	10,647
265,81	10,533
266,07	10,398
266,34	10,471
266,61	10,444
266,88	10,425
267,15	10,474
267,41	10,594
267,68	10,532
267,95	10,714
268,22	10,966
268,48	11,184
268,75	11,322
269,02	11,449
269,29	11,512
269,56	11,659
269,82	11,566
270,09	11,383
270,36	11,279
270,63	11,316
270,89	11,092
271,16	11,164
271,43	11,233
271,70	11,366
271,97	11,354
272,23	11,466
272,50	11,424
272,77	11,516
273,04	11,520
273,30	11,705
273,57	11,726
273,84	11,910
274,11	11,993
274,37	12,069
274,64	12,317
274,91	12,332
275,18	12,243
275,45	12,242
275,71	12,340
275,98	12,310
276,25	12,343
276,52	12,252
276,78	12,344
277,05	12,473
277,32	12,576
277,59	12,568
277,85	12,803
278,12	13,038
278,39	13,207
278,66	13,297
278,92	13,311
279,19	13,364
279,46	13,427
279,73	13,353
279,99	13,154
280,26	12,980
280,53	13,135
280,80	13,082
281,06	13,062
281,33	13,185
281,60	13,248
281,87	13,344
282,13	13,570
282,40	13,456
282,67	13,661
282,94	13,820
283,20	13,746
283,47	13,814
283,74	14,003
284,01	14,055
284,27	14,128
284,54	14,090
284,81	14,131
285,07	14,114
285,34	14,201
285,61	14,111
285,88	14,080
286,14	14,240
286,41	14,435
286,68	14,338
286,95	14,501
287,21	14,427
287,48	14,568
287,75	14,663
288,02	14,680
288,28	14,624
288,55	14,821
288,82	14,852
289,08	15,015
289,35	15,024
289,62	15,113
289,89	15,051
290,15	15,064
290,42	15,013
290,69	15,017
290,95	14,970
291,22	14,963
291,49	14,992
291,76	15,040
292,02	15,072
292,29	15,185
292,56	15,191
292,82	15,278
293,09	15,386
293,36	15,464
293,63	15,437
293,89	15,532
294,16	15,535
294,43	15,628
294,69	15,640
294,96	15,603
295,23	15,591
295,50	15,711
295,76	15,741
296,03	15,765
296,30	15,841
296,56	15,816
296,83	15,936
297,10	15,975
297,36	15,982
297,63	15,977
297,90	16,042
298,16	16,129
298,43	16,231
298,70	16,170
298,97	16,179
299,23	16,300
299,50	16,387
299,77	16,395
300,03	16,362
300,30	16,377
300,57	16,421
300,83	16,479
301,10	16,473
301,37	16,463
301,63	16,516
301,90	16,547
302,17	16,609
302,44	16,605
302,70	16,666
302,97	16,692
303,24	16,744
303,50	16,757
303,77	16,774
304,04	16,724
304,30	16,863
304,57	16,794
304,84	16,864
305,10	16,875
305,37	16,920
305,64	16,912
305,90	16,981
306,17	17,000
306,44	17,075
306,70	17,018
306,97	17,047
307,24	17,049
307,50	17,113
307,77	17,072
308,04	17,035
308,30	17,034
308,57	17,103
308,84	17,157
309,10	17,204
309,37	17,220
309,64	17,356
309,90	17,471
310,17	17,507
310,44	17,490
310,70	17,517
310,97	17,540
311,24	17,578
311,50	17,530
311,77	17,502
312,04	17,502
312,30	17,553
312,57	17,532
312,84	17,534
313,10	17,521
313,37	17,544
313,63	17,514
313,90	17,586
314,17	17,522
314,43	17,609
314,70	17,720
314,97	17,638
315,23	17,679
315,50	17,743
315,77	17,693
316,03	17,707
316,30	17,655
316,57	17,607
316,83	17,710
317,10	17,655
317,36	17,626
317,63	17,679
317,90	17,689
318,16	17,720
318,43	17,733
318,70	17,761
318,96	17,895
319,23	17,938
319,50	17,968
319,76	18,070
320,03	18,114
320,29	18,077
320,56	18,017
320,83	18,007
321,09	18,141
321,36	18,234
321,63	18,278
321,89	18,208
322,16	18,262
322,42	18,335
322,69	18,388
322,96	18,214
323,22	18,041
323,49	17,943
323,76	17,935
324,02	18,013
324,29	18,045
324,55	18,002
324,82	18,062
325,09	18,181
325,35	18,282
325,62	18,374
325,88	18,268
326,15	18,183
326,42	18,208
326,68	18,250
326,95	18,196
327,21	18,125
327,48	18,121
327,75	18,158
328,01	18,295
328,28	18,282
328,55	18,283
328,81	18,335
329,08	18,395
329,34	18,351
329,61	18,288
329,88	18,184
330,14	18,158
330,41	18,188
330,67	18,199
330,94	18,171
331,21	18,221
331,47	18,250
331,74	18,267
332,00	18,175
332,27	18,087
332,53	18,071
332,80	18,069
333,07	17,988
333,33	18,035
333,60	18,021
333,86	18,141
334,13	18,195
334,40	18,284
334,66	18,330
334,93	18,417
335,19	18,407
335,46	18,513
335,73	18,594
335,99	18,658
336,26	18,598
336,52	18,613
336,79	18,565
337,05	18,582
337,32	18,499
337,59	18,352
337,85	18,225
338,12	18,167
338,38	18,128
338,65	18,132
338,91	18,165
339,18	18,266
339,45	18,379
339,71	18,480
339,98	18,548
340,24	18,644
340,51	18,625
340,77	18,554
341,04	18,495
341,31	18,434
341,57	18,345
341,84	18,294
342,10	18,201
342,37	18,250
342,63	18,282
342,90	18,320
343,17	18,346
343,43	18,373
343,70	18,326
343,96	18,296
344,23	18,280
344,49	18,274
344,76	18,227
345,02	18,120
345,29	18,200
345,56	18,311
345,82	18,354
346,09	18,271
346,35	18,205
346,62	18,221
346,88	18,440
347,15	18,433
347,41	18,388
347,68	18,378
347,94	18,437
348,21	18,459
348,48	18,463
348,74	18,351
349,01	18,324
349,27	18,329
349,54	18,304
349,80	18,291
350,07	18,377
350,33	18,371
350,60	18,368
350,86	18,303
351,13	18,269
351,39	18,264
351,66	18,230
351,93	18,197
352,19	18,257
352,46	18,225
352,72	18,257
352,99	18,246
353,25	18,309
353,52	18,381
353,78	18,403
354,05	18,293
354,31	18,309
354,58	18,370
354,84	18,385
355,11	18,408
355,37	18,452
355,64	18,335
355,90	18,366
356,17	18,328
356,43	18,235
356,70	18,254
356,97	18,188
357,23	18,128
357,50	18,197
357,76	18,246
358,03	18,395
358,29	18,400
358,56	18,439
358,82	18,494
359,09	18,546
359,35	18,474
359,62	18,495
359,88	18,400
360,15	18,406
360,41	18,341
360,68	18,288
360,94	18,274
361,21	18,362
361,47	18,367
361,74	18,343
362,00	18,312
362,27	18,311
362,53	18,359
362,80	18,302
363,06	18,262
363,33	18,225
363,59	18,290
363,86	18,347
364,12	18,284
364,39	18,243
364,65	18,289
364,92	18,351
365,18	18,348
365,45	18,309
365,71	18,312
365,98	18,428
366,24	18,413
366,51	18,341
366,77	18,249
367,04	18,238
367,30	18,273
367,57	18,234
367,83	18,167
368,10	18,180
368,36	18,202
368,63	18,258
368,89	18,200
369,15	18,155
369,42	18,202
369,68	18,235
369,95	18,258
370,21	18,328
370,48	18,309
370,74	18,333
371,01	18,360
371,27	18,315
371,54	18,334
371,80	18,342
372,07	18,367
372,33	18,423
372,60	18,417
372,86	18,389
373,13	18,425
373,39	18,354
373,66	18,336
373,92	18,281
374,18	18,244
374,45	18,272
374,71	18,320
374,98	18,363
375,24	18,410
375,51	18,367
375,77	18,351
376,04	18,337
376,30	18,349
376,57	18,346
376,83	18,237
377,10	18,128
377,36	18,110
377,62	18,080
377,89	18,079
378,15	18,108
378,42	18,083
378,68	18,135
378,95	18,252
379,21	18,370
379,48	18,378
379,74	18,322
380,00	18,196
380,27	18,238
380,53	18,306
380,80	18,290
381,06	18,241
381,33	18,289
381,59	18,383
381,86	18,436
382,12	18,378
382,38	18,362
382,65	18,373
382,91	18,385
383,18	18,364
383,44	18,317
383,71	18,313
383,97	18,311
384,24	18,278
384,50	18,287
384,76	18,234
385,03	18,236
385,29	18,257
385,56	18,290
385,82	18,348
386,09	18,374
386,35	18,357
386,61	18,388
386,88	18,431
387,14	18,412
387,41	18,446
387,67	18,418
387,94	18,403
388,20	18,409
388,46	18,395
388,73	18,387
388,99	18,401
389,26	18,341
389,52	18,337
389,78	18,293
390,05	18,273
390,31	18,265
390,58	18,198
390,84	18,150
391,11	18,148
391,37	18,106
391,63	18,163
391,90	18,145
392,16	18,162
392,43	18,174
392,69	18,256
392,95	18,267
393,22	18,282
393,48	18,223
393,75	18,338
394,01	18,332
394,27	18,409
394,54	18,392
394,80	18,393
395,07	18,433
395,33	18,478
395,59	18,382
395,86	18,376
396,12	18,381
396,39	18,349
396,65	18,297
396,91	18,252
397,18	18,269
397,44	18,228
397,71	18,180
397,97	18,110
398,23	18,065
398,50	18,111
398,76	18,156
399,03	18,067
399,29	18,082
399,55	18,106
399,82	18,147
400,08	18,254
400,34	18,198
400,61	18,118
400,87	18,166
401,14	18,222
401,40	18,228
401,66	18,159
401,93	18,120
402,19	18,133
402,46	18,164
402,72	18,134
402,98	18,136
403,25	18,152
403,51	18,217
403,77	18,171
404,04	18,182
404,30	18,157
404,57	18,178
404,83	18,150
405,09	18,092
405,36	18,055
405,62	18,061
405,88	18,085
406,15	18,134
406,41	18,124
406,67	18,161
406,94	18,218
407,20	18,175
407,47	18,209
407,73	18,230
407,99	18,218
408,26	18,182
408,52	18,108
408,78	18,211
409,05	18,280
409,31	18,305
409,57	18,361
409,84	18,422
410,10	18,477
410,37	18,423
410,63	18,296
410,89	18,275
411,16	18,218
411,42	18,104
411,68	18,046
411,95	18,062
412,21	18,098
412,47	18,075
412,74	18,009
413,00	18,065
413,26	18,065
413,53	18,007
413,79	17,990
414,05	18,027
414,32	18,087
414,58	18,090
414,84	18,002
415,11	18,030
415,37	18,024
415,63	17,876
415,90	17,908
416,16	17,842
416,42	17,877
416,69	17,928
416,95	17,927
417,21	17,977
417,48	18,122
417,74	18,073
418,00	18,044
418,27	18,023
418,53	18,024
418,79	17,985
419,06	17,959
419,32	17,892
419,58	17,895
419,85	17,908
420,11	17,964
420,37	17,920
420,64	17,891
420,90	17,849
421,16	17,856
421,43	17,828
421,69	17,814
421,95	17,819
422,22	17,821
422,48	17,874
422,74	17,906
423,01	17,896
423,27	17,940
423,53	17,945
423,79	17,898
424,06	17,916
424,32	17,930
424,58	17,933
424,85	17,927
425,11	17,876
425,37	17,925
425,64	17,960
425,90	17,939
426,16	17,921
426,43	17,934
426,69	17,936
426,95	17,960
427,21	17,918
427,48	17,885
427,74	17,854
428,00	17,855
428,27	17,807
428,53	17,861
428,79	17,879
429,06	17,905
429,32	17,905
429,58	17,935
429,84	17,966
430,11	18,014
430,37	18,003
430,63	17,963
430,90	17,949
431,16	17,947
431,42	17,934
431,68	17,898
431,95	17,918
432,21	17,892
432,47	17,949
432,74	17,969
433,00	17,968
433,26	17,973
433,52	17,920
433,79	17,876
434,05	17,883
434,31	17,826
434,58	17,831
434,84	17,814
435,10	17,831
435,36	17,875
435,63	17,908
435,89	17,909
436,15	17,911
436,41	17,855
436,68	17,887
436,94	17,941
437,20	17,989
437,47	17,985
437,73	18,013
437,99	18,083
438,25	18,138
438,52	18,100
438,78	18,066
439,04	18,082
439,30	18,082
439,57	18,075
439,83	18,072
440,09	18,026
440,35	18,071
440,62	17,984
440,88	17,958
441,14	17,958
441,41	17,931
441,67	17,927
441,93	17,942
442,19	17,881
442,46	18,052
442,72	18,046
442,98	18,057
443,24	18,109
443,51	18,029
443,77	18,026
444,03	18,136
444,29	18,050
444,56	18,021
444,82	18,036
445,08	18,030
445,34	18,134
445,61	18,159
445,87	18,097
446,13	18,119
446,39	18,151
446,65	18,145
446,92	18,179
447,18	18,158
447,44	18,102
447,70	18,078
447,97	18,112
448,23	18,132
448,49	18,080
448,75	17,968
449,02	17,892
449,28	17,905
449,54	17,911
449,80	17,841
450,07	17,762
450,33	17,815
450,59	17,849
450,85	17,911
451,11	17,948
451,38	17,908
451,64	17,796
451,90	17,783
452,16	17,768
452,43	17,746
452,69	17,648
452,95	17,580
453,21	17,567
453,47	17,662
453,74	17,668
454,00	17,625
454,26	17,609
454,52	17,668
454,79	17,704
455,05	17,723
455,31	17,703
455,57	17,697
455,83	17,684
456,10	17,676
456,36	17,666
456,62	17,653
456,88	17,627
457,14	17,617
457,41	17,620
457,67	17,606
457,93	17,549
458,19	17,500
458,45	17,478
458,72	17,454
458,98	17,421
459,24	17,393
459,50	17,412
459,76	17,454
460,03	17,482
460,29	17,432
460,55	17,488
460,81	17,500
461,07	17,475
461,34	17,420
461,60	17,438
461,86	17,353
462,12	17,364
462,38	17,328
462,65	17,318
462,91	17,308
463,17	17,301
463,43	17,212
463,69	17,242
463,96	17,263
464,22	17,293
464,48	17,254
464,74	17,243
465,00	17,229
465,26	17,217
465,53	17,256
465,79	17,206
466,05	17,127
466,31	17,133
466,57	17,123
466,84	17,122
467,10	17,159
467,36	17,116
467,62	17,091
467,88	17,085
468,14	17,055
468,41	17,064
468,67	17,043
468,93	17,001
469,19	16,984
469,45	16,997
469,71	17,013
469,98	16,995
470,24	16,939
470,50	16,911
470,76	16,886
471,02	16,848
471,28	16,823
471,55	16,781
471,81	16,782
472,07	16,769
472,33	16,750
472,59	16,731
472,85	16,743
473,12	16,721
473,38	16,666
473,64	16,637
473,90	16,603
474,16	16,601
474,42	16,616
474,68	16,578
474,95	16,571
475,21	16,587
475,47	16,594
475,73	16,633
475,99	16,639
476,25	16,644
476,52	16,663
476,78	16,651
477,04	16,639
477,30	16,629
477,56	16,607
477,82	16,593
478,08	16,571
478,35	16,556
478,61	16,536
478,87	16,504
479,13	16,476
479,39	16,455
479,65	16,452
479,91	16,449
480,17	16,435
480,44	16,427
480,70	16,440
480,96	16,424
481,22	16,428
481,48	16,409
481,74	16,383
482,00	16,381
482,27	16,375
482,53	16,368
482,79	16,365
483,05	16,324
483,31	16,290
483,57	16,276
483,83	16,270
484,09	16,267
484,36	16,241
484,62	16,219
484,88	16,223
485,14	16,238
485,40	16,249
485,66	16,222
485,92	16,209
486,18	16,223
486,44	16,230
486,71	16,214
486,97	16,179
487,23	16,166
487,49	16,174
487,75	16,142
488,01	16,111
488,27	16,125
488,53	16,122
488,79	16,122
489,06	16,092
489,32	16,063
489,58	16,057
489,84	16,045
490,10	15,988
490,36	15,965
490,62	15,963
490,88	15,933
491,14	15,917
491,40	15,933
491,67	15,904
491,93	15,923
492,19	15,904
492,45	15,857
492,71	15,833
492,97	15,773
493,23	15,722
493,49	15,711
493,75	15,648
494,01	15,648
494,28	15,635
494,54	15,664
494,80	15,718
495,06	15,691
495,32	15,703
495,58	15,723
495,84	15,688
496,10	15,661
496,36	15,603
496,62	15,570
496,88	15,577
497,14	15,524
497,41	15,435
497,67	15,449
497,93	15,453
498,19	15,459
498,45	15,409
498,71	15,389
498,97	15,378
499,23	15,421
499,49	15,379
499,75	15,391
500,01	15,376
500,27	15,367
500,53	15,345
500,80	15,342
501,06	15,344
501,32	15,326
501,58	15,274
501,84	15,273
502,10	15,262
502,36	15,265
502,62	15,253
502,88	15,194
503,14	15,185
503,40	15,181
503,66	15,154
503,92	15,158
504,18	15,122
504,44	15,098
504,70	15,095
504,97	15,064
505,23	15,060
505,49	15,042
505,75	14,994
506,01	14,958
506,27	14,953
506,53	14,969
506,79	14,984
507,05	14,975
507,31	14,962
507,57	14,928
507,83	14,958
508,09	14,930
508,35	14,887
508,61	14,855
508,87	14,825
509,13	14,791
509,39	14,806
509,65	14,790
509,91	14,774
510,17	14,765
510,43	14,715
510,70	14,700
510,96	14,700
511,22	14,676
511,48	14,622
511,74	14,614
512,00	14,594
512,26	14,593
512,52	14,574
512,78	14,544
513,04	14,548
513,30	14,554
513,56	14,530
513,82	14,514
514,08	14,507
514,34	14,495
514,60	14,482
514,86	14,466
515,12	14,434
515,38	14,396
515,64	14,389
515,90	14,371
516,16	14,322
516,42	14,305
516,68	14,279
516,94	14,281
517,20	14,271
517,46	14,246
517,72	14,258
517,98	14,268
518,24	14,275
518,50	14,240
518,76	14,236
519,02	14,227
519,28	14,217
519,54	14,185
519,80	14,161
520,06	14,125
520,32	14,125
520,58	14,089
520,84	14,079
521,10	14,061
521,36	14,048
521,62	14,035
521,88	14,039
522,14	14,054
522,40	14,057
522,66	14,080
522,92	14,094
523,18	14,075
523,44	14,060
523,70	14,044
523,96	13,995
524,22	13,944
524,48	13,917
524,74	13,887
525,00	13,887
525,26	13,868
525,52	13,869
525,78	13,872
526,04	13,875
526,30	13,856
526,56	13,853
526,82	13,816
527,08	13,793
527,34	13,778
527,60	13,787
527,86	13,809
528,12	13,824
528,38	13,804
528,64	13,833
528,90	13,850
529,16	13,837
529,42	13,806
529,68	13,771
529,94	13,749
530,20	13,764
530,46	13,753
530,72	13,754
530,98	13,738
531,24	13,771
531,50	13,787
531,76	13,777
532,02	13,763
532,28	13,765
532,54	13,747
532,80	13,762
533,06	13,742
533,32	13,734
533,58	13,738
533,84	13,748
534,10	13,753
534,35	13,769
534,61	13,761
534,87	13,734
535,13	13,747
535,39	13,754
535,65	13,743
535,91	13,734
536,17	13,766
536,43	13,764
536,69	13,824
536,95	13,845
537,21	13,857
537,47	13,866
537,73	13,844
537,99	13,834
538,25	13,866
538,51	13,858
538,77	13,850
539,03	13,843
539,29	13,862
539,55	13,914
539,80	13,929
540,06	13,945
540,32	13,951
540,58	13,935
540,84	13,973
541,10	13,987
541,36	13,990
541,62	14,005
541,88	13,974
542,14	13,976
542,40	13,978
542,66	13,950
542,92	13,928
543,18	13,915
543,44	13,888
543,70	13,941
543,95	13,919
544,21	13,943
544,47	13,949
544,73	13,973
544,99	13,961
545,25	13,945
545,51	13,906
545,77	13,939
546,03	13,927
546,29	13,924
546,55	13,922
546,81	13,956
547,07	13,941
547,32	13,904
547,58	13,885
547,84	13,882
548,10	13,867
548,36	13,847
548,62	13,814
548,88	13,825
549,14	13,863
549,40	13,838
549,66	13,826
549,92	13,828
550,18	13,836
550,43	13,855
550,69	13,876
550,95	13,877
551,21	13,869
551,47	13,832
551,73	13,818
551,99	13,793
552,25	13,771
552,51	13,790
552,77	13,769
553,03	13,792
553,28	13,829
553,54	13,829
553,80	13,826
554,06	13,807
554,32	13,756
554,58	13,724
554,84	13,681
555,10	13,654
555,36	13,623
555,61	13,589
555,87	13,578
556,13	13,572
556,39	13,521
556,65	13,502
556,91	13,462
557,17	13,469
557,43	13,526
557,69	13,479
557,94	13,420
558,20	13,450
558,46	13,445
558,72	13,452
558,98	13,412
559,24	13,316
559,50	13,317
559,76	13,326
560,02	13,295
560,27	13,266
560,53	13,242
560,79	13,224
561,05	13,244
561,31	13,249
561,57	13,231
561,83	13,227
562,09	13,242
562,34	13,232
562,60	13,242
562,86	13,221
563,12	13,198
563,38	13,185
563,64	13,197
563,90	13,147
564,15	13,121
564,41	13,084
564,67	13,066
564,93	13,054
565,19	13,037
565,45	12,993
565,71	12,997
565,97	12,989
566,22	12,976
566,48	12,931
566,74	12,873
567,00	12,850
567,26	12,849
567,52	12,823
567,78	12,838
568,03	12,828
568,29	12,811
568,55	12,825
568,81	12,814
569,07	12,799
569,33	12,813
569,58	12,793
569,84	12,801
570,10	12,809
570,36	12,804
570,62	12,763
570,88	12,744
571,14	12,714
571,39	12,691
571,65	12,651
571,91	12,619
572,17	12,594
572,43	12,600
572,69	12,564
572,94	12,543
573,20	12,526
573,46	12,509
573,72	12,514
573,98	12,510
574,24	12,497
574,49	12,491
574,75	12,479
575,01	12,444
575,27	12,435
575,53	12,399
575,79	12,385
576,04	12,423
576,30	12,430
576,56	12,423
576,82	12,430
577,08	12,450
577,33	12,481
577,59	12,510
577,85	12,473
578,11	12,486
578,37	12,488
578,63	12,512
578,88	12,508
579,14	12,520
579,40	12,469
579,66	12,455
579,92	12,432
580,17	12,448
580,43	12,426
580,69	12,424
580,95	12,396
581,21	12,423
581,47	12,443
581,72	12,456
581,98	12,461
582,24	12,471
582,50	12,491
582,76	12,510
583,01	12,525
583,27	12,538
583,53	12,494
583,79	12,469
584,05	12,496
584,30	12,504
584,56	12,523
584,82	12,537
585,08	12,539
585,34	12,589
585,59	12,613
585,85	12,599
586,11	12,563
586,37	12,575
586,63	12,598
586,88	12,635
587,14	12,645
587,40	12,653
587,66	12,663
587,91	12,658
588,17	12,648
588,43	12,650
588,69	12,643
588,95	12,667
589,20	12,695
589,46	12,719
589,72	12,765
589,98	12,803
590,24	12,803
590,49	12,806
590,75	12,807
591,01	12,802
591,27	12,808
591,52	12,824
591,78	12,825
592,04	12,842
592,30	12,842
592,55	12,847
592,81	12,851
593,07	12,843
593,33	12,853
593,59	12,851
593,84	12,844
594,10	12,874
594,36	12,893
594,62	12,883
594,87	12,897
595,13	12,908
595,39	12,921
595,65	12,919
595,90	12,926
596,16	12,934
596,42	12,963
596,68	12,986
596,93	13,011
597,19	13,004
597,45	13,038
597,71	13,039
597,97	13,012
598,22	13,035
598,48	13,035
598,74	13,022
599,00	13,031
599,25	13,001
599,51	13,009
599,77	13,049
600,03	13,072
600,28	13,085
600,54	13,090
600,80	13,104
601,05	13,133
601,31	13,138
601,57	13,139
601,83	13,117
602,08	13,126
602,34	13,113
602,60	13,066
602,86	13,061
603,11	13,065
603,37	13,080
603,63	13,084
603,89	13,080
604,14	13,106
604,40	13,155
604,66	13,171
604,92	13,173
605,17	13,165
605,43	13,177
605,69	13,188
605,94	13,187
606,20	13,199
606,46	13,202
606,72	13,206
606,97	13,212
607,23	13,200
607,49	13,176
607,75	13,177
608,00	13,187
608,26	13,198
608,52	13,197
608,77	13,221
609,03	13,236
609,29	13,240
609,55	13,266
609,80	13,265
610,06	13,242
610,32	13,257
610,57	13,226
610,83	13,230
611,09	13,238
611,35	13,220
611,60	13,209
611,86	13,206
612,12	13,196
612,37	13,215
612,63	13,226
612,89	13,232
613,15	13,269
613,40	13,316
613,66	13,343
613,92	13,365
614,17	13,389
614,43	13,403
614,69	13,421
614,94	13,398
615,20	13,371
615,46	13,374
615,72	13,374
615,97	13,388
616,23	13,389
616,49	13,399
616,74	13,418
617,00	13,436
617,26	13,445
617,51	13,459
617,77	13,449
618,03	13,457
618,28	13,467
618,54	13,480
618,80	13,504
619,05	13,507
619,31	13,515
619,57	13,520
619,83	13,504
620,08	13,508
620,34	13,489
620,60	13,467
620,85	13,469
621,11	13,492
621,37	13,511
621,62	13,521
621,88	13,549
622,14	13,584
622,39	13,621
622,65	13,647
622,91	13,644
623,16	13,666
623,42	13,703
623,68	13,682
623,93	13,681
624,19	13,680
624,45	13,696
624,70	13,715
624,96	13,718
625,22	13,714
625,47	13,724
625,73	13,750
625,99	13,772
626,24	13,786
626,50	13,789
626,76	13,805
627,01	13,814
627,27	13,827
627,53	13,847
627,78	13,847
628,04	13,870
628,30	13,873
628,55	13,865
628,81	13,901
629,07	13,929
629,32	13,914
629,58	13,926
629,83	13,932
630,09	13,976
630,35	14,022
630,60	14,029
630,86	14,069
631,12	14,110
631,37	14,147
631,63	14,149
631,89	14,174
632,14	14,178
632,40	14,205
632,66	14,214
632,91	14,233
633,17	14,256
633,42	14,279
633,68	14,275
633,94	14,300
634,19	14,315
634,45	14,336
634,71	14,363
634,96	14,359
635,22	14,398
635,48	14,433
635,73	14,479
635,99	14,500
636,24	14,527
636,50	14,519
636,76	14,550
637,01	14,580
637,27	14,617
637,53	14,593
637,78	14,609
638,04	14,640
638,29	14,693
638,55	14,723
638,81	14,763
639,06	14,775
639,32	14,841
639,57	14,885
639,83	14,930
640,09	14,976
640,34	15,016
640,60	15,021
640,86	15,039
641,11	15,057
641,37	15,083
641,62	15,082
641,88	15,102
642,14	15,132
642,39	15,147
642,65	15,172
642,90	15,214
643,16	15,243
643,42	15,289
643,67	15,293
643,93	15,317
644,18	15,316
644,44	15,355
644,70	15,377
644,95	15,404
645,21	15,422
645,46	15,480
645,72	15,496
645,98	15,550
646,23	15,579
646,49	15,606
646,74	15,636
647,00	15,677
647,26	15,691
647,51	15,728
647,77	15,782
648,02	15,814
648,28	15,825
648,54	15,847
648,79	15,841
649,05	15,865
649,30	15,900
649,56	15,942
649,81	15,985
650,07	16,036
650,33	16,074
650,58	16,121
650,84	16,162
651,09	16,192
651,35	16,194
651,60	16,200
651,86	16,218
652,12	16,233
652,37	16,271
652,63	16,269
652,88	16,275
653,14	16,301
653,39	16,337
653,65	16,336
653,91	16,387
654,16	16,420
654,42	16,465
654,67	16,522
654,93	16,577
655,18	16,611
655,44	16,678
655,70	16,707
655,95	16,739
656,21	16,768
656,46	16,780
656,72	16,798
656,97	16,834
657,23	16,858
657,49	16,897
657,74	16,910
658,00	16,939
658,25	16,994
658,51	17,017
658,76	17,036
659,02	17,062
659,27	17,059
659,53	17,083
659,78	17,139
660,04	17,152
660,30	17,168
660,55	17,205
660,81	17,229
661,06	17,259
661,32	17,282
661,57	17,292
661,83	17,313
662,08	17,338
662,34	17,330
662,59	17,348
662,85	17,378
663,11	17,408
663,36	17,430
663,62	17,469
663,87	17,520
664,13	17,551
664,38	17,591
664,64	17,633
664,89	17,671
665,15	17,703
665,40	17,717
665,66	17,736
665,91	17,774
666,17	17,798
666,42	17,802
666,68	17,805
666,93	17,817
667,19	17,823
667,45	17,842
667,70	17,875
667,96	17,909
668,21	17,930
668,47	17,960
668,72	17,987
668,98	18,015
669,23	18,042
669,49	18,050
669,74	18,035
670,00	18,045
670,25	18,054
670,51	18,071
670,76	18,097
671,02	18,110
671,27	18,131
671,53	18,157
671,78	18,179
672,04	18,184
672,29	18,239
672,55	18,269
672,80	18,279
673,06	18,301
673,31	18,343
673,57	18,364
673,82	18,405
674,08	18,379
674,33	18,358
674,59	18,365
674,84	18,404
675,10	18,384
675,35	18,397
675,61	18,401
675,86	18,435
676,12	18,475
676,37	18,520
676,63	18,501
676,88	18,531
677,14	18,567
677,39	18,585
677,65	18,581
677,90	18,570
678,16	18,529
678,41	18,534
678,67	18,531
678,92	18,534
679,18	18,538
679,43	18,547
679,69	18,583
679,94	18,608
680,20	18,611
680,45	18,640
680,71	18,648
680,96	18,656
681,21	18,638
681,47	18,642
681,72	18,707
681,98	18,746
682,23	18,763
682,49	18,778
682,74	18,805
683,00	18,831
683,25	18,848
683,51	18,825
683,76	18,819
684,02	18,795
684,27	18,785
684,53	18,778
684,78	18,806
685,04	18,790
685,29	18,752
685,54	18,761
685,80	18,791
686,05	18,802
686,31	18,834
686,56	18,829
686,82	18,832
687,07	18,892
687,33	18,883
687,58	18,870
687,84	18,895
688,09	18,901
688,34	18,925
688,60	18,921
688,85	18,942
689,11	18,979
689,36	18,996
689,62	18,975
689,87	18,969
690,13	18,963
690,38	18,978
690,64	18,927
690,89	18,929
691,14	18,957
691,40	18,984
691,65	18,989
691,91	18,981
692,16	19,003
692,42	19,025
692,67	19,015
692,92	18,977
693,18	18,972
693,43	18,967
693,69	18,973
693,94	18,978
694,20	19,006
694,45	19,037
694,71	19,090
694,96	19,079
695,21	19,088
695,47	19,101
695,72	19,080
695,98	19,056
696,23	19,018
696,48	18,998
696,74	18,979
696,99	18,988
697,25	19,006
697,50	19,036
697,76	19,040
698,01	19,076
698,26	19,075
698,52	19,114
698,77	19,104
699,03	19,100
699,28	19,097
699,54	19,130
699,79	19,136
700,04	19,170
700,30	19,155
700,55	19,207
700,81	19,227
701,06	19,216
701,31	19,187
701,57	19,183
701,82	19,183
702,08	19,210
702,33	19,165
702,58	19,140
702,84	19,142
703,09	19,159
703,35	19,133
703,60	19,111
703,85	19,123
704,11	19,153
704,36	19,160
704,62	19,156
704,87	19,164
705,12	19,182
705,38	19,173
705,63	19,141
705,89	19,138
706,14	19,127
706,39	19,158
706,65	19,158
706,90	19,142
707,16	19,162
707,41	19,141
707,66	19,128
707,92	19,134
708,17	19,109
708,42	19,114
708,68	19,125
708,93	19,126
709,19	19,166
709,44	19,191
709,69	19,198
709,95	19,213
710,20	19,210
710,46	19,227
710,71	19,186
710,96	19,200
711,22	19,176
711,47	19,176
711,72	19,196
711,98	19,206
712,23	19,229
712,48	19,269
712,74	19,263
712,99	19,279
713,25	19,271
713,50	19,249
713,75	19,243
714,01	19,202
714,26	19,193
714,51	19,167
714,77	19,162
715,02	19,180
715,28	19,199
715,53	19,202
715,78	19,213
716,04	19,196
716,29	19,211
716,54	19,214
716,80	19,213
717,05	19,226
717,30	19,240
717,56	19,238
717,81	19,241
718,06	19,240
718,32	19,237
718,57	19,205
718,82	19,196
719,08	19,182
719,33	19,209
719,58	19,235
719,84	19,243
720,09	19,246
720,35	19,277
720,60	19,289
720,85	19,296
721,11	19,297
721,36	19,300
721,61	19,293
721,87	19,277
722,12	19,267
722,37	19,243
722,63	19,225
722,88	19,224
723,13	19,234
723,39	19,253
723,64	19,273
723,89	19,296
724,15	19,308
724,40	19,299
724,65	19,269
724,91	19,272
725,16	19,263
725,41	19,253
725,67	19,208
725,92	19,192
726,17	19,207
726,42	19,209
726,68	19,182
726,93	19,186
727,18	19,186
727,44	19,213
727,69	19,187
727,94	19,191
728,20	19,215
728,45	19,251
728,70	19,258
728,96	19,262
729,21	19,248
729,46	19,292
729,72	19,287
729,97	19,287
730,22	19,274
730,48	19,262
730,73	19,272
730,98	19,308
731,23	19,289
731,49	19,323
731,74	19,323
731,99	19,314
732,25	19,316
732,50	19,303
732,75	19,283
733,01	19,296
733,26	19,285
733,51	19,264
733,76	19,256
734,02	19,256
734,27	19,271
734,52	19,248
734,78	19,237
735,03	19,241
735,28	19,262
735,54	19,268
735,79	19,276
736,04	19,271
736,29	19,303
736,55	19,295
736,80	19,269
737,05	19,257
737,31	19,264
737,56	19,271
737,81	19,269
738,06	19,262
738,32	19,264
738,57	19,258
738,82	19,261
739,07	19,263
739,33	19,262
739,58	19,231
739,83	19,241
740,09	19,270
740,34	19,280
740,59	19,284
740,84	19,295
741,10	19,322
741,35	19,362
741,60	19,356
741,86	19,318
742,11	19,326
742,36	19,294
742,61	19,286
742,87	19,279
743,12	19,299
743,37	19,315
743,62	19,380
743,88	19,405
744,13	19,438
744,38	19,442
744,63	19,446
744,89	19,409
745,14	19,403
745,39	19,344
745,64	19,325
745,90	19,337
746,15	19,331
746,40	19,322
746,65	19,329
746,91	19,340
747,16	19,347
747,41	19,328
747,66	19,330
747,92	19,330
748,17	19,320
748,42	19,325
748,67	19,307
748,93	19,313
749,18	19,319
749,43	19,306
749,68	19,295
749,94	19,290
750,19	19,296
750,44	19,300
750,69	19,278
750,95	19,284
751,20	19,271
751,45	19,279
751,70	19,278
751,96	19,271
752,21	19,251
752,46	19,288
752,71	19,287
752,96	19,295
753,22	19,296
753,47	19,287
753,72	19,292
753,97	19,320
754,23	19,300
754,48	19,318
754,73	19,316
754,98	19,302
755,24	19,292
755,49	19,277
755,74	19,266
755,99	19,272
756,24	19,249
756,50	19,247
756,75	19,239
757,00	19,279
757,25	19,288
757,50	19,298
757,76	19,274
758,01	19,284
758,26	19,290
758,51	19,308
758,77	19,269
759,02	19,260
759,27	19,272
759,52	19,294
759,77	19,295
760,03	19,276
760,28	19,287
760,53	19,319
760,78	19,348
761,03	19,301
761,29	19,307
761,54	19,297
761,79	19,311
762,04	19,321
762,29	19,314
762,55	19,300
762,80	19,349
763,05	19,368
763,30	19,364
763,55	19,397
763,81	19,387
764,06	19,375
764,31	19,357
764,56	19,332
764,81	19,315
765,07	19,332
765,32	19,279
765,57	19,248
765,82	19,246
766,07	19,246
766,32	19,248
766,58	19,238
766,83	19,251
767,08	19,284
767,33	19,285
767,58	19,279
767,84	19,305
768,09	19,320
768,34	19,315
768,59	19,309
768,84	19,322
769,09	19,352
769,35	19,361
769,60	19,335
769,85	19,327
770,10	19,335
770,35	19,325
770,60	19,295
770,86	19,296
771,11	19,303
771,36	19,294
771,61	19,288
771,86	19,296
772,11	19,307
772,37	19,317
772,62	19,309
772,87	19,306
773,12	19,342
773,37	19,360
773,62	19,396
773,88	19,373
774,13	19,356
774,38	19,383
774,63	19,408
774,88	19,404
775,13	19,401
775,38	19,367
775,64	19,414
775,89	19,434
776,14	19,425
776,39	19,414
776,64	19,410
776,89	19,410
777,15	19,419
777,40	19,390
777,65	19,367
777,90	19,355
778,15	19,345
778,40	19,323
778,65	19,327
778,91	19,338
779,16	19,363
779,41	19,399
779,66	19,395
779,91	19,397
780,16	19,422
780,41	19,400
780,66	19,356
780,92	19,326
781,17	19,337
781,42	19,323
781,67	19,286
781,92	19,267
782,17	19,286
782,42	19,337
782,68	19,353
782,93	19,334
783,18	19,348
783,43	19,357
783,68	19,355
783,93	19,360
784,18	19,351
784,43	19,371
784,69	19,385
784,94	19,390
785,19	19,412
785,44	19,408
785,69	19,390
785,94	19,370
786,19	19,328
786,44	19,299
786,69	19,306
786,95	19,303
787,20	19,328
787,45	19,341
787,70	19,354
787,95	19,369
788,20	19,381
788,45	19,378
788,70	19,394
788,95	19,390
789,21	19,396
789,46	19,390
789,71	19,384
789,96	19,402
790,21	19,388
790,46	19,368
790,71	19,364
790,96	19,367
791,21	19,348
791,46	19,346
791,72	19,334
791,97	19,321
792,22	19,325
792,47	19,323
792,72	19,309
792,97	19,311
793,22	19,293
793,47	19,305
793,72	19,321
793,97	19,331
794,22	19,342
794,47	19,382
794,73	19,403
794,98	19,416
795,23	19,407
795,48	19,419
795,73	19,423
795,98	19,425
796,23	19,375
796,48	19,350
796,73	19,362
796,98	19,337
797,23	19,305
797,48	19,295
797,74	19,282
797,99	19,294
798,24	19,287
798,49	19,297
798,74	19,336
798,99	19,366
799,24	19,368
799,49	19,396
799,74	19,389
799,99	19,395
800,24	19,363
800,49	19,342
800,74	19,329
800,99	19,348
801,24	19,323
801,50	19,320
801,75	19,330
802,00	19,343
802,25	19,344
802,50	19,333
802,75	19,294
803,00	19,285
803,25	19,292
803,50	19,296
803,75	19,315
804,00	19,324
804,25	19,328
804,50	19,344
804,75	19,361
805,00	19,410
805,25	19,417
805,50	19,409
805,75	19,403
806,00	19,420
806,26	19,452
806,51	19,472
806,76	19,420
807,01	19,421
807,26	19,439
807,51	19,455
807,76	19,472
808,01	19,447
808,26	19,406
808,51	19,400
808,76	19,391
809,01	19,382
809,26	19,360
809,51	19,340
809,76	19,342
810,01	19,358
810,26	19,388
810,51	19,398
810,76	19,376
811,01	19,387
811,26	19,399
811,51	19,390
811,76	19,398
812,01	19,351
812,26	19,345
812,51	19,355
812,76	19,366
813,01	19,349
813,26	19,367
813,51	19,360
813,76	19,426
814,01	19,420
814,26	19,409
814,51	19,414
814,76	19,418
815,02	19,424
815,27	19,417
815,52	19,377
815,77	19,392
816,02	19,399
816,27	19,368
816,52	19,347
816,77	19,343
817,02	19,353
817,27	19,370
817,52	19,439
817,77	19,462
818,02	19,478
818,27	19,486
818,52	19,496
818,77	19,505
819,02	19,513
819,27	19,440
819,52	19,427
819,77	19,405
820,02	19,430
820,27	19,407
820,52	19,417
820,77	19,367
821,02	19,367
821,27	19,364
821,52	19,385
821,77	19,376
822,02	19,394
822,26	19,398
822,51	19,441
822,76	19,430
823,01	19,403
823,26	19,388
823,51	19,408
823,76	19,433
824,01	19,428
824,26	19,423
824,51	19,445
824,76	19,489
825,01	19,510
825,26	19,493
825,51	19,467
825,76	19,450
826,01	19,473
826,26	19,480
826,51	19,432
826,76	19,449
827,01	19,457
827,26	19,440
827,51	19,426
827,76	19,400
828,01	19,365
828,26	19,412
828,51	19,392
828,76	19,407
829,01	19,406
829,26	19,442
829,51	19,464
829,76	19,474
830,01	19,459
830,26	19,470
830,51	19,456
830,76	19,477
831,00	19,481
831,25	19,456
831,50	19,450
831,75	19,468
832,00	19,449
832,25	19,441
832,50	19,435
832,75	19,406
833,00	19,404
833,25	19,431
833,50	19,429
833,75	19,455
834,00	19,464
834,25	19,432
834,50	19,434
834,75	19,420
835,00	19,439
835,25	19,407
835,50	19,389
835,74	19,391
835,99	19,427
836,24	19,439
836,49	19,524
836,74	19,499
836,99	19,542
837,24	19,549
837,49	19,529
837,74	19,518
837,99	19,507
838,24	19,403
838,49	19,395
838,74	19,375
838,99	19,348
839,24	19,324
839,48	19,327
839,73	19,325
839,98	19,398
840,23	19,391
840,48	19,336
840,73	19,344
840,98	19,394
841,23	19,384
841,48	19,409
841,73	19,364
841,98	19,384
842,23	19,450
842,48	19,495
842,72	19,501
842,97	19,542
843,22	19,535
843,47	19,534
843,72	19,506
843,97	19,488
844,22	19,486
844,47	19,437
844,72	19,432
844,97	19,432
845,22	19,452
845,46	19,507
845,71	19,568
845,96	19,562
846,21	19,590
846,46	19,574
846,71	19,581
846,96	19,583
847,21	19,578
847,46	19,535
847,71	19,520
847,95	19,520
848,20	19,501
848,45	19,487
848,70	19,466
848,95	19,414
849,20	19,375
849,45	19,363
849,70	19,400
849,95	19,457
850,19	19,432
850,44	19,469
850,69	19,490
850,94	19,537
851,19	19,547
851,44	19,457
851,69	19,392
851,94	19,421
852,19	19,387
852,43	19,402
852,68	19,373
852,93	19,392
853,18	19,448
853,43	19,474
853,68	19,465
853,93	19,503
854,18	19,505
854,42	19,492
854,67	19,458
854,92	19,443
855,17	19,463
855,42	19,443
855,67	19,450
855,92	19,474
856,16	19,490
856,41	19,514
856,66	19,538
856,91	19,501
857,16	19,507
857,41	19,457
857,66	19,423
857,91	19,462
858,15	19,472
858,40	19,485
858,65	19,482
858,90	19,502
859,15	19,554
859,40	19,582
859,65	19,535
859,89	19,493
860,14	19,456
860,39	19,514
860,64	19,506
860,89	19,519
861,14	19,512
861,38	19,512
861,63	19,540
861,88	19,584
862,13	19,551
862,38	19,512
862,63	19,479
862,88	19,504
863,12	19,515
863,37	19,520
863,62	19,488
863,87	19,518
864,12	19,608
864,37	19,621
864,61	19,570
864,86	19,585
865,11	19,555
865,36	19,549
865,61	19,542
865,86	19,515
866,10	19,483
866,35	19,505
866,60	19,491
866,85	19,517
867,10	19,582
867,35	19,598
867,59	19,610
867,84	19,673
868,09	19,665
868,34	19,683
868,59	19,691
868,83	19,652
869,08	19,599
869,33	19,573
869,58	19,520
869,83	19,518
870,08	19,544
870,32	19,554
870,57	19,549
870,82	19,576
871,07	19,611
871,32	19,641
871,56	19,663
871,81	19,634
872,06	19,602
872,31	19,581
872,56	19,567
872,81	19,535
873,05	19,536
873,30	19,537
873,55	19,499
873,80	19,536
874,05	19,609
874,29	19,618
874,54	19,589
874,79	19,536
875,04	19,536
875,29	19,607
875,53	19,596
875,78	19,582
876,03	19,599
876,28	19,654
876,52	19,684
876,77	19,679
877,02	19,646
877,27	19,621
877,52	19,567
877,76	19,541
878,01	19,522
878,26	19,536
878,51	19,517
878,76	19,495
879,00	19,541
879,25	19,569
879,50	19,571
879,75	19,563
880,00	19,544
880,24	19,544
880,49	19,552
880,74	19,523
880,99	19,500
881,23	19,494
881,48	19,519
881,73	19,509
881,98	19,492
882,22	19,493
882,47	19,509
882,72	19,565
882,97	19,567
883,22	19,562
883,46	19,598
883,71	19,630
883,96	19,657
884,21	19,614
884,45	19,611
884,70	19,623
884,95	19,618
885,20	19,579
885,44	19,561
885,69	19,555
885,94	19,603
886,19	19,574
886,43	19,567
886,68	19,541
886,93	19,527
887,18	19,526
887,42	19,507
887,67	19,505
887,92	19,487
888,17	19,492
888,42	19,519
888,66	19,530
888,91	19,524
889,16	19,523
889,40	19,513
889,65	19,546
889,90	19,547
890,15	19,553
890,39	19,600
890,64	19,631
890,89	19,640
891,14	19,629
891,38	19,619
891,63	19,638
891,88	19,642
892,13	19,616
892,37	19,599
892,62	19,589
892,87	19,584
893,12	19,595
893,36	19,589
893,61	19,566
893,86	19,549
894,11	19,560
894,35	19,587
894,60	19,619
894,85	19,632
895,09	19,656
895,34	19,667
895,59	19,693
895,84	19,693
896,08	19,686
896,33	19,645
896,58	19,584
896,82	19,531
897,07	19,524
897,32	19,548
897,57	19,536
897,81	19,526
898,06	19,539
898,31	19,541
898,55	19,551
898,80	19,569
899,05	19,503
899,30	19,498
899,54	19,502
899,79	19,512
900,04	19,574
900,28	19,631
900,53	19,638
900,78	19,664
901,03	19,679
901,27	19,681
901,52	19,671
901,77	19,655
902,01	19,609
902,26	19,631
902,51	19,682
902,75	19,697
903,00	19,703
903,25	19,732
903,50	19,698
903,74	19,720
903,99	19,691
904,24	19,659
904,48	19,656
904,73	19,660
904,98	19,626
905,22	19,624
905,47	19,594
905,72	19,565
905,96	19,570
906,21	19,603
906,46	19,612
906,70	19,665
906,95	19,705
907,20	19,695
907,45	19,712
907,69	19,740
907,94	19,696
908,19	19,699
908,43	19,682
908,68	19,666
908,93	19,642
909,17	19,622
909,42	19,608
909,67	19,612
909,91	19,602
910,16	19,632
910,41	19,646
910,65	19,688
910,90	19,746
911,15	19,730
911,39	19,746
911,64	19,721
911,89	19,696
912,13	19,682
912,38	19,691
912,63	19,658
912,87	19,629
913,12	19,612
913,37	19,636
913,61	19,609
913,86	19,614
914,11	19,615
914,35	19,639
914,60	19,674
914,85	19,690
915,09	19,716
915,34	19,774
915,58	19,795
915,83	19,806
916,08	19,823
916,32	19,831
916,57	19,845
916,82	19,839
917,06	19,816
917,31	19,804
917,56	19,787
917,80	19,765
918,05	19,795
918,30	19,804
918,54	19,828
918,79	19,819
919,04	19,833
919,28	19,848
919,53	19,866
919,77	19,854
920,02	19,849
920,27	19,852
920,51	19,858
920,76	19,859
921,01	19,861
921,25	19,883
921,50	19,879
921,74	19,901
921,99	19,892
922,24	19,931
922,48	19,950
922,73	19,969
922,98	19,966
923,22	19,978
923,47	19,954
923,71	19,956
923,96	19,941
924,21	19,939
924,45	19,924
924,70	19,893
924,95	19,895
925,19	19,930
925,44	19,944
925,68	19,946
925,93	19,951
926,18	20,008
926,42	20,047
926,67	20,069
926,91	20,082
927,16	20,092
927,41	20,105
927,65	20,140
927,90	20,123
928,14	20,144
928,39	20,165
928,64	20,160
928,88	20,174
929,13	20,199
929,37	20,177
929,62	20,183
929,87	20,164
930,11	20,143
930,36	20,142
930,60	20,124
930,85	20,134
931,10	20,155
931,34	20,152
931,59	20,159
931,83	20,168
932,08	20,170
932,33	20,189
932,57	20,170
932,82	20,144
933,06	20,151
933,31	20,155
933,56	20,144
933,80	20,136
934,05	20,109
934,29	20,085
934,54	20,109
934,78	20,107
935,03	20,083
935,28	20,067
935,52	20,040
935,77	20,000
936,01	19,988
936,26	19,927
936,51	19,900
936,75	19,886
937,00	19,866
937,24	19,880
937,49	19,925
937,73	19,933
937,98	19,949
938,22	19,936
938,47	19,913
938,72	19,920
938,96	19,898
939,21	19,866
939,45	19,856
939,70	19,863
939,94	19,862
940,19	19,893
940,44	19,901
940,68	19,877
940,93	19,880
941,17	19,866
941,42	19,837
941,66	19,831
941,91	19,794
942,15	19,786
942,40	19,827
942,65	19,839
942,89	19,846
943,14	19,856
943,38	19,860
943,63	19,881
943,87	19,862
944,12	19,824
944,36	19,822
944,61	19,807
944,85	19,821
945,10	19,836
945,35	19,832
945,59	19,846
945,84	19,874
946,08	19,872
946,33	19,883
946,57	19,880
946,82	19,845
947,06	19,850
947,31	19,844
947,55	19,843
947,80	19,840
948,04	19,851
948,29	19,846
948,54	19,877
948,78	19,886
949,03	19,892
949,27	19,921
949,52	19,934
949,76	19,924
950,01	19,946
950,25	19,954
950,50	19,967
950,74	19,966
950,99	19,953
951,23	19,952
951,48	19,944
951,72	19,937
951,97	19,938
952,21	19,953
952,46	19,968
952,70	19,971
952,95	19,971
953,19	20,020
953,44	20,014
953,68	20,012
953,93	19,999
954,17	19,988
954,42	19,970
954,66	19,978
954,91	19,945
955,15	19,943
955,40	19,934
955,64	19,920
955,89	19,959
956,13	19,962
956,38	19,937
956,62	19,942
956,87	19,947
957,11	19,944
957,36	19,946
957,60	19,921
957,85	19,948
958,09	19,957
958,34	19,954
958,58	19,934
958,83	19,945
959,07	19,936
959,32	19,921
959,56	19,905
959,81	19,927
960,05	19,932
960,30	19,952
960,54	19,949
960,79	19,977
961,03	19,989
961,28	19,997
961,52	19,977
961,77	19,975
962,01	19,968
962,26	19,949
962,50	19,938
962,75	19,941
962,99	19,947
963,24	19,944
963,48	19,961
963,73	19,973
963,97	19,966
964,21	19,945
964,46	19,947
964,70	19,918
964,95	19,923
965,19	19,903
965,44	19,872
965,68	19,909
965,93	19,910
966,17	19,899
966,42	19,921
966,66	19,903
966,91	19,909
967,15	19,925
967,40	19,908
967,64	19,920
967,88	19,911
968,13	19,898
968,37	19,905
968,62	19,906
968,86	19,912
969,11	19,897
969,35	19,878
969,60	19,874
969,84	19,877
970,09	19,869
970,33	19,858
970,57	19,869
970,82	19,894
971,06	19,919
971,31	19,925
971,55	19,913
971,80	19,929
972,04	19,932
972,29	19,941
972,53	19,914
972,77	19,886
973,02	19,869
973,26	19,862
973,51	19,862
973,75	19,873
974,00	19,834
974,24	19,829
974,48	19,822
974,73	19,843
974,97	19,856
975,22	19,872
975,46	19,857
975,71	19,852
975,95	19,850
976,19	19,887
976,44	19,910
976,68	19,903
976,93	19,869
977,17	19,877
977,42	19,895
977,66	19,920
977,90	19,907
978,15	19,877
978,39	19,897
978,64	19,920
978,88	19,917
979,12	19,938
979,37	19,930
979,61	19,935
979,86	19,904
980,10	19,854
980,35	19,838
980,59	19,853
980,83	19,854
981,08	19,887
981,32	19,879
981,57	19,886
981,81	19,930
982,05	19,943
982,30	19,932
982,54	19,926
982,79	19,877
983,03	19,872
983,27	19,876
983,52	19,854
983,76	19,821
984,01	19,810
984,25	19,817
984,49	19,819
984,74	19,823
984,98	19,844
985,23	19,862
985,47	19,883
985,71	19,877
985,96	19,834
986,20	19,821
986,45	19,852
986,69	19,883
986,93	19,881
987,18	19,885
987,42	19,904
987,66	19,896
987,91	19,934
988,15	19,898
988,40	19,875
988,64	19,877
988,88	19,868
989,13	19,864
989,37	19,915
989,61	19,893
989,86	19,854
990,10	19,840
990,35	19,836
990,59	19,820
990,83	19,815
991,08	19,756
991,32	19,751
991,56	19,808
991,81	19,828
992,05	19,810
992,30	19,828
992,54	19,824
992,78	19,856
993,03	19,854
993,27	19,820
993,51	19,813
993,76	19,820
994,00	19,780
994,24	19,777
994,49	19,789
994,73	19,764
994,98	19,755
995,22	19,771
995,46	19,793
995,71	19,830
995,95	19,839
996,19	19,854
996,44	19,908
996,68	19,930
996,92	19,882
997,17	19,852
997,41	19,892
997,65	19,848
997,90	19,840
998,14	19,806
998,38	19,843
998,63	19,877
998,87	19,906
999,11	19,897
999,36	19,953
999,60	19,935
999,84	19,985
1000,09	19,966
1000,33	19,966
1000,57	19,918
1000,82	19,885
1001,06	19,833
1001,30	19,853
1001,55	19,845
1001,79	19,823
1002,03	19,838
1002,28	19,893
1002,52	19,925
1002,76	19,979
1003,01	19,983
1003,25	19,999
1003,49	20,034
1003,74	20,025
1003,98	20,034
1004,22	20,005
1004,47	19,986
1004,71	19,989
1004,95	19,969
1005,20	19,954
1005,44	19,995
1005,68	19,972
1005,93	19,992
1006,17	20,024
1006,41	20,048
1006,66	20,049
1006,90	20,068
1007,14	20,044
1007,38	20,089
1007,63	20,081
1007,87	20,050
1008,11	20,060
1008,36	20,077
1008,60	20,096
1008,84	20,048
1009,09	19,954
1009,33	19,950
1009,57	19,948
1009,81	19,894
1010,06	19,901
1010,30	19,850
1010,54	19,872
1010,79	19,975
1011,03	19,990
1011,27	20,018
1011,52	19,994
1011,76	19,900
1012,00	19,891
1012,24	19,878
1012,49	19,859
1012,73	19,856
1012,97	19,865
1013,22	19,893
1013,46	19,964
1013,70	19,965
1013,94	19,984
1014,19	19,954
1014,43	19,917
1014,67	19,926
1014,92	19,926
1015,16	19,866
1015,40	19,861
1015,64	19,874
1015,89	19,870
1016,13	19,901
1016,37	19,864
1016,62	19,877
1016,86	19,983
1017,10	20,042
1017,34	20,029
1017,59	20,043
1017,83	20,064
1018,07	20,018
1018,31	19,962
1018,56	19,917
1018,80	19,862
1019,04	19,838
1019,28	19,905
1019,53	19,917
1019,77	19,994
1020,01	20,044
1020,26	20,019
1020,50	20,050
1020,74	20,104
1020,98	20,039
1021,23	19,973
1021,47	19,966
1021,71	19,943
1021,95	20,017
1022,20	20,070
1022,44	20,069
1022,68	20,072
1022,92	20,123
1023,17	20,123
1023,41	20,185
1023,65	20,128
1023,89	20,117
1024,14	20,039
1024,38	19,997
1024,62	19,959
1024,86	19,944
1025,11	19,936
1025,35	19,994
1025,59	19,987
1025,83	20,014
1026,07	20,098
1026,32	20,186
1026,56	20,198
1026,80	20,194
1027,04	20,100
1027,29	20,064
1027,53	20,149
1027,77	20,111
1028,01	20,056
1028,26	20,037
1028,50	20,026
1028,74	20,091
1028,98	20,172
1029,22	20,095
1029,47	20,070
1029,71	20,019
1029,95	20,004
1030,19	19,987
1030,44	19,923
1030,68	19,778
1030,92	19,796
1031,16	19,803
1031,40	19,840
1031,65	19,832
1031,89	19,855
1032,13	19,921
1032,37	20,023
1032,62	20,094
1032,86	20,017
1033,10	20,012
1033,34	20,010
1033,58	20,007
1033,83	20,017
1034,07	19,979
1034,31	19,928
1034,55	19,997
1034,79	19,999
1035,04	19,963
1035,28	20,012
1035,52	19,990
1035,76	19,968
1036,00	19,922
1036,25	19,977
1036,49	20,065
1036,73	20,143
1036,97	20,115
1037,21	20,096
1037,46	20,127
1037,70	20,132
1037,94	20,155
1038,18	20,010
1038,42	20,019
1038,67	20,075
1038,91	20,095
1039,15	20,175
1039,39	20,327
1039,63	20,340
1039,88	20,412
1040,12	20,442
1040,36	20,357
1040,60	20,444
1040,84	20,407
1041,08	20,348
1041,33	20,348
1041,57	20,378
1041,81	20,470
1042,05	20,550
1042,29	20,487
1042,53	20,441
1042,78	20,420
1043,02	20,463
1043,26	20,422
1043,50	20,354
1043,74	20,297
1043,99	20,237
1044,23	20,312
1044,47	20,351
1044,71	20,252
1044,95	20,220
1045,19	20,192
1045,44	20,067
1045,68	20,097
1045,92	20,032
1046,16	19,995
1046,40	20,023
1046,64	20,045
1046,88	20,011
1047,13	20,165
1047,37	20,215
1047,61	20,222
1047,85	20,153
1048,09	20,206
1048,33	20,274
1048,58	20,308
1048,82	20,207
1049,06	20,133
1049,30	20,049
1049,54	20,051
1049,78	19,964
1050,02	19,878
1050,27	19,789
1050,51	19,795
1050,75	19,883
1050,99	19,933
1051,23	19,894
1051,47	19,835
1051,71	19,778
1051,96	19,770
1052,20	19,762
1052,44	19,714
1052,68	19,752
1052,92	19,911
1053,16	19,839
1053,40	19,949
1053,65	19,934
1053,89	19,977
1054,13	19,996
1054,37	19,924
1054,61	19,909
1054,85	20,151
1055,09	20,252
1055,33	20,326
1055,58	20,352
1055,82	20,470
1056,06	20,525
1056,30	20,455
1056,54	20,359
1056,78	20,347
1057,02	20,449
1057,26	20,455
1057,51	20,268
1057,75	20,374
1057,99	20,453
1058,23	20,592
1058,47	20,473
1058,71	20,351
1058,95	20,338
1059,19	20,311
1059,43	20,340
1059,68	20,122
1059,92	20,041
1060,16	20,186
1060,40	20,136
1060,64	20,089
1060,88	20,263
1061,12	20,236
1061,36	20,318
1061,60	20,256
1061,84	20,171
1062,09	20,260
1062,33	20,205
1062,57	19,942
1062,81	19,672
1063,05	19,772
1063,29	19,738
1063,53	19,770
1063,77	19,871
1064,01	20,178
1064,25	20,521
1064,50	20,566
1064,74	20,575
1064,98	20,601
1065,22	20,644
1065,46	20,555
1065,70	20,287
1065,94	20,230
1066,18	20,278
1066,42	20,167
1066,66	20,071
1066,90	19,876
1067,14	19,856
1067,39	19,818
1067,63	19,732
1067,87	19,684
1068,11	19,566
1068,35	19,673
1068,59	19,626
1068,83	19,627
1069,07	19,845
1069,31	19,896
1069,55	20,083
1069,79	20,236
1070,03	20,269
1070,27	20,330
1070,52	20,275
1070,76	20,134
1071,00	20,186
1071,24	19,958
1071,48	19,989
1071,72	19,782
1071,96	19,934
1072,20	20,009
1072,44	20,196
1072,68	20,169
1072,92	20,338
1073,16	20,318
1073,40	20,382
1073,64	20,494
1073,88	20,613
1074,12	20,457
1074,36	20,261
1074,61	20,186
1074,85	20,486
1075,09	20,892
1075,33	20,934
1075,57	20,928
1075,81	20,874
1076,05	21,129
1076,29	21,128
1076,53	20,973
1076,77	20,609
1077,01	20,495
1077,25	20,385
1077,49	20,235
1077,73	19,865
1077,97	19,850
1078,21	19,611
1078,45	19,729
1078,69	19,645
1078,93	19,813
1079,17	20,137
1079,41	20,439
1079,65	20,552
1079,89	20,363
1080,13	20,191
1080,37	20,027
1080,61	19,629
1080,86	19,253
1081,10	19,291
1081,34	19,373
1081,58	19,800
1081,82	20,239
1082,06	20,495
1082,30	20,778
1082,54	20,801
1082,78	20,381
1083,02	20,339
1083,26	20,267
1083,50	19,730
1083,74	19,781
1083,98	19,774
1084,22	19,903
1084,46	20,290
1084,70	20,206
1084,94	20,090
1085,18	20,265
1085,42	20,358
1085,66	20,255
1085,90	20,266
1086,14	20,501
1086,38	20,431
1086,62	20,707
1086,86	20,686
1087,10	20,068
1087,34	20,141
1087,58	20,414
1087,82	20,058
1088,06	20,090
1088,30	20,031
1088,54	20,336
1088,78	20,496
1089,02	20,258
1089,26	20,185
1089,50	20,537
1089,74	20,739
1089,98	20,580
1090,22	20,614
1090,46	20,639
1090,70	20,816
1090,94	20,717
1091,18	20,205
1091,42	20,294
1091,66	20,622
1091,90	20,262
1092,14	20,695
1092,38	20,256
1092,62	20,017
1092,86	20,426
1093,10	20,399
1093,34	19,902
1093,58	19,941
1093,82	19,786
1094,06	20,594
1094,30	20,633
1094,54	20,599
1094,78	20,439
1095,01	20,543
1095,25	20,625
1095,49	20,390
1095,73	20,069
1095,97	19,873
1096,21	19,818
1096,45	19,695
1096,69	20,058
1096,93	19,577
1097,17	19,341
1097,41	18,722
1097,65	19,531
1097,89	19,651
1098,13	19,919
1098,37	19,777
1098,61	20,060
1098,85	20,353
1099,09	21,242
1099,33	20,653
1099,57	20,128
1099,81	20,029
1100,05	19,488
1100,29	19,389
1100,53	19,327
1100,77	19,126
1101,00	19,261
1101,24	19,572
1101,48	20,116
1101,72	20,814
1101,96	20,716
1102,20	21,370
1102,44	20,981
1102,68	21,275
1102,92	21,319
1103,16	20,923
1103,40	20,706
1103,64	21,371
1103,88	20,913
1104,12	21,506
1104,36	21,461
1104,60	20,803
1104,84	20,283
1105,07	20,171
1105,31	19,924
1105,55	19,799
1105,79	19,774
1106,03	19,816
1106,27	20,629
1106,51	20,728
1106,75	20,516
1106,99	19,340
1107,23	19,215
1107,47	18,977
1107,71	18,811
1107,95	18,389
1108,18	18,096
1108,42	19,104
1108,66	19,262
1108,90	19,304
1109,14	18,751
1109,38	17,930
1109,62	17,493
1109,86	17,760
1110,10	16,181
1110,34	17,392
1110,58	17,776
1110,82	18,739
1111,05	20,252
1111,29	20,600
1111,53	20,228
1111,77	20,224
1112,01	20,835
1112,25	20,999
1112,49	20,933
1112,73	19,458
1112,97	19,938
1113,21	20,477
1113,45	21,110
1113,68	20,062
1113,92	20,026
1114,16	19,089
1114,40	19,728
1114,64	18,489
1114,88	18,790
1115,12	19,135
1115,36	19,085
1115,60	19,009
1115,83	18,955
1116,07	19,881
1116,31	21,273
1116,55	20,298
1116,79	18,503
1117,03	19,837
1117,27	19,324
1117,51	20,876
1117,75	19,732
1117,98	19,126
1118,22	19,014
1118,46	21,796
1118,70	20,952
1118,94	21,008
1119,18	18,844
1119,42	19,531
1119,66	19,626
1119,89	19,517
1120,13	17,030
1120,37	17,078
1120,61	16,225
1120,85	17,208
1121,09	17,657
1121,33	18,935
1121,57	21,027
1121,80	19,835
1122,04	19,172
1122,28	19,402
1122,52	21,695
1122,76	22,664
1123,00	21,757
1123,24	31,641
1123,47	34,088
1123,71	24,191
>>>>>End Processed Spectral Data<<<<<
